ALV-7004 or ALV-7004/FAST Data
Date :	"04.06.2015"
Time :	"16:22:49"
Samplename : 	""
SampMemo(0) : 	""
SampMemo(1) : 	""
SampMemo(2) : 	""
SampMemo(3) : 	""
SampMemo(4) : 	""
SampMemo(5) : 	""
SampMemo(6) : 	""
SampMemo(7) : 	""
SampMemo(8) : 	""
SampMemo(9) : 	""
Temperature [K] :	     297.93009
Viscosity [cp]  :	       0.89000
Refractive Index:	       1.33200
Wavelength [nm] :	     632.80000
Angle [°]       :	      95.20000
Duration [s]    :	        25
Runs            :	         1
Mode            :	"C-CH0/1+1/0 "
MeanCR0 [kHz]   :	     678.51501
MeanCR1 [kHz]   :	     531.83868
MeanCR2 [kHz]   :	       0.00000
MeanCR3 [kHz]   :	       0.00000

"Correlation"
  2.50000E-005	  2.86659E-001	  2.84796E-001	  0.00000E+000	  0.00000E+000
  5.00000E-005	  2.87926E-001	  2.88926E-001	  0.00000E+000	  0.00000E+000
  7.50000E-005	  2.88985E-001	  2.89157E-001	  0.00000E+000	  0.00000E+000
  1.00000E-004	  2.86871E-001	  2.87700E-001	  0.00000E+000	  0.00000E+000
  1.25000E-004	  2.87072E-001	  2.86243E-001	  0.00000E+000	  0.00000E+000
  1.50000E-004	  2.87058E-001	  2.86740E-001	  0.00000E+000	  0.00000E+000
  1.75000E-004	  2.86969E-001	  2.87690E-001	  0.00000E+000	  0.00000E+000
  2.00000E-004	  2.89164E-001	  2.88822E-001	  0.00000E+000	  0.00000E+000
  2.25000E-004	  2.92206E-001	  2.92287E-001	  0.00000E+000	  0.00000E+000
  2.50000E-004	  2.89671E-001	  2.88428E-001	  0.00000E+000	  0.00000E+000
  2.75000E-004	  2.89492E-001	  2.89836E-001	  0.00000E+000	  0.00000E+000
  3.00000E-004	  2.87771E-001	  2.82748E-001	  0.00000E+000	  0.00000E+000
  3.25000E-004	  2.88209E-001	  2.89068E-001	  0.00000E+000	  0.00000E+000
  3.50000E-004	  2.88889E-001	  2.88571E-001	  0.00000E+000	  0.00000E+000
  3.75000E-004	  2.87757E-001	  2.87479E-001	  0.00000E+000	  0.00000E+000
  4.00000E-004	  2.89102E-001	  2.89221E-001	  0.00000E+000	  0.00000E+000
  4.50000E-004	  2.90483E-001	  2.90858E-001	  0.00000E+000	  0.00000E+000
  5.00000E-004	  2.87942E-001	  2.89474E-001	  0.00000E+000	  0.00000E+000
  5.50000E-004	  2.89007E-001	  2.87703E-001	  0.00000E+000	  0.00000E+000
  6.00000E-004	  2.90468E-001	  2.87872E-001	  0.00000E+000	  0.00000E+000
  6.50000E-004	  2.90575E-001	  2.89455E-001	  0.00000E+000	  0.00000E+000
  7.00000E-004	  2.86692E-001	  2.88042E-001	  0.00000E+000	  0.00000E+000
  7.50000E-004	  2.88729E-001	  2.88384E-001	  0.00000E+000	  0.00000E+000
  8.00000E-004	  2.89916E-001	  2.89593E-001	  0.00000E+000	  0.00000E+000
  9.00000E-004	  2.88616E-001	  2.87745E-001	  0.00000E+000	  0.00000E+000
  1.00000E-003	  2.88430E-001	  2.89258E-001	  0.00000E+000	  0.00000E+000
  1.10000E-003	  2.88940E-001	  2.89235E-001	  0.00000E+000	  0.00000E+000
  1.20000E-003	  2.86652E-001	  2.87546E-001	  0.00000E+000	  0.00000E+000
  1.30000E-003	  2.88845E-001	  2.87738E-001	  0.00000E+000	  0.00000E+000
  1.40000E-003	  2.89255E-001	  2.88121E-001	  0.00000E+000	  0.00000E+000
  1.50000E-003	  2.89901E-001	  2.88336E-001	  0.00000E+000	  0.00000E+000
  1.60000E-003	  2.88520E-001	  2.88486E-001	  0.00000E+000	  0.00000E+000
  1.80000E-003	  2.88244E-001	  2.87725E-001	  0.00000E+000	  0.00000E+000
  2.00000E-003	  2.88774E-001	  2.88410E-001	  0.00000E+000	  0.00000E+000
  2.20000E-003	  2.88929E-001	  2.88625E-001	  0.00000E+000	  0.00000E+000
  2.40000E-003	  2.86423E-001	  2.86326E-001	  0.00000E+000	  0.00000E+000
  2.60000E-003	  2.87972E-001	  2.87559E-001	  0.00000E+000	  0.00000E+000
  2.80000E-003	  2.87692E-001	  2.87933E-001	  0.00000E+000	  0.00000E+000
  3.00000E-003	  2.87845E-001	  2.88042E-001	  0.00000E+000	  0.00000E+000
  3.20000E-003	  2.87808E-001	  2.87940E-001	  0.00000E+000	  0.00000E+000
  3.60000E-003	  2.87434E-001	  2.87465E-001	  0.00000E+000	  0.00000E+000
  4.00000E-003	  2.87605E-001	  2.87795E-001	  0.00000E+000	  0.00000E+000
  4.40000E-003	  2.87660E-001	  2.88012E-001	  0.00000E+000	  0.00000E+000
  4.80000E-003	  2.87487E-001	  2.86782E-001	  0.00000E+000	  0.00000E+000
  5.20000E-003	  2.87853E-001	  2.87725E-001	  0.00000E+000	  0.00000E+000
  5.60000E-003	  2.87292E-001	  2.87325E-001	  0.00000E+000	  0.00000E+000
  6.00000E-003	  2.87126E-001	  2.87173E-001	  0.00000E+000	  0.00000E+000
  6.40000E-003	  2.87440E-001	  2.87331E-001	  0.00000E+000	  0.00000E+000
  7.20000E-003	  2.87146E-001	  2.86837E-001	  0.00000E+000	  0.00000E+000
  8.00000E-003	  2.87507E-001	  2.87257E-001	  0.00000E+000	  0.00000E+000
  8.80000E-003	  2.86245E-001	  2.85944E-001	  0.00000E+000	  0.00000E+000
  9.60000E-003	  2.86660E-001	  2.86833E-001	  0.00000E+000	  0.00000E+000
  1.04000E-002	  2.86166E-001	  2.86079E-001	  0.00000E+000	  0.00000E+000
  1.12000E-002	  2.86377E-001	  2.86714E-001	  0.00000E+000	  0.00000E+000
  1.20000E-002	  2.85921E-001	  2.85111E-001	  0.00000E+000	  0.00000E+000
  1.28000E-002	  2.85770E-001	  2.85485E-001	  0.00000E+000	  0.00000E+000
  1.44000E-002	  2.85517E-001	  2.85588E-001	  0.00000E+000	  0.00000E+000
  1.60000E-002	  2.85633E-001	  2.85609E-001	  0.00000E+000	  0.00000E+000
  1.76000E-002	  2.85416E-001	  2.85276E-001	  0.00000E+000	  0.00000E+000
  1.92000E-002	  2.84680E-001	  2.84438E-001	  0.00000E+000	  0.00000E+000
  2.08000E-002	  2.84572E-001	  2.84353E-001	  0.00000E+000	  0.00000E+000
  2.24000E-002	  2.84393E-001	  2.84200E-001	  0.00000E+000	  0.00000E+000
  2.40000E-002	  2.84099E-001	  2.83919E-001	  0.00000E+000	  0.00000E+000
  2.56000E-002	  2.83931E-001	  2.83906E-001	  0.00000E+000	  0.00000E+000
  2.88000E-002	  2.83111E-001	  2.83166E-001	  0.00000E+000	  0.00000E+000
  3.20000E-002	  2.82881E-001	  2.82863E-001	  0.00000E+000	  0.00000E+000
  3.52000E-002	  2.82094E-001	  2.82016E-001	  0.00000E+000	  0.00000E+000
  3.84000E-002	  2.81483E-001	  2.81534E-001	  0.00000E+000	  0.00000E+000
  4.16000E-002	  2.81080E-001	  2.81217E-001	  0.00000E+000	  0.00000E+000
  4.48000E-002	  2.80735E-001	  2.80851E-001	  0.00000E+000	  0.00000E+000
  4.80000E-002	  2.80155E-001	  2.80263E-001	  0.00000E+000	  0.00000E+000
  5.12000E-002	  2.79406E-001	  2.79443E-001	  0.00000E+000	  0.00000E+000
  5.76000E-002	  2.78376E-001	  2.78261E-001	  0.00000E+000	  0.00000E+000
  6.40000E-002	  2.77257E-001	  2.77277E-001	  0.00000E+000	  0.00000E+000
  7.04000E-002	  2.76395E-001	  2.76566E-001	  0.00000E+000	  0.00000E+000
  7.68000E-002	  2.75362E-001	  2.75252E-001	  0.00000E+000	  0.00000E+000
  8.32000E-002	  2.74541E-001	  2.74634E-001	  0.00000E+000	  0.00000E+000
  8.96000E-002	  2.73307E-001	  2.73298E-001	  0.00000E+000	  0.00000E+000
  9.60000E-002	  2.72260E-001	  2.72173E-001	  0.00000E+000	  0.00000E+000
  1.02400E-001	  2.71440E-001	  2.71419E-001	  0.00000E+000	  0.00000E+000
  1.15200E-001	  2.69520E-001	  2.69422E-001	  0.00000E+000	  0.00000E+000
  1.28000E-001	  2.67488E-001	  2.67660E-001	  0.00000E+000	  0.00000E+000
  1.40800E-001	  2.65640E-001	  2.65793E-001	  0.00000E+000	  0.00000E+000
  1.53600E-001	  2.63790E-001	  2.63889E-001	  0.00000E+000	  0.00000E+000
  1.66400E-001	  2.62025E-001	  2.61997E-001	  0.00000E+000	  0.00000E+000
  1.79200E-001	  2.60124E-001	  2.60278E-001	  0.00000E+000	  0.00000E+000
  1.92000E-001	  2.58355E-001	  2.58433E-001	  0.00000E+000	  0.00000E+000
  2.04800E-001	  2.56590E-001	  2.56739E-001	  0.00000E+000	  0.00000E+000
  2.30400E-001	  2.53212E-001	  2.53323E-001	  0.00000E+000	  0.00000E+000
  2.56000E-001	  2.49725E-001	  2.49766E-001	  0.00000E+000	  0.00000E+000
  2.81600E-001	  2.46522E-001	  2.46603E-001	  0.00000E+000	  0.00000E+000
  3.07200E-001	  2.43257E-001	  2.43296E-001	  0.00000E+000	  0.00000E+000
  3.32800E-001	  2.40098E-001	  2.40169E-001	  0.00000E+000	  0.00000E+000
  3.58400E-001	  2.36949E-001	  2.36994E-001	  0.00000E+000	  0.00000E+000
  3.84000E-001	  2.33941E-001	  2.33903E-001	  0.00000E+000	  0.00000E+000
  4.09600E-001	  2.30907E-001	  2.30940E-001	  0.00000E+000	  0.00000E+000
  4.60800E-001	  2.25105E-001	  2.25109E-001	  0.00000E+000	  0.00000E+000
  5.12000E-001	  2.19425E-001	  2.19417E-001	  0.00000E+000	  0.00000E+000
  5.63200E-001	  2.14008E-001	  2.14041E-001	  0.00000E+000	  0.00000E+000
  6.14400E-001	  2.08711E-001	  2.08798E-001	  0.00000E+000	  0.00000E+000
  6.65600E-001	  2.03647E-001	  2.03766E-001	  0.00000E+000	  0.00000E+000
  7.16800E-001	  1.98743E-001	  1.98913E-001	  0.00000E+000	  0.00000E+000
  7.68000E-001	  1.93867E-001	  1.94091E-001	  0.00000E+000	  0.00000E+000
  8.19200E-001	  1.89245E-001	  1.89448E-001	  0.00000E+000	  0.00000E+000
  9.21600E-001	  1.80301E-001	  1.80512E-001	  0.00000E+000	  0.00000E+000
  1.02400E+000	  1.71984E-001	  1.72260E-001	  0.00000E+000	  0.00000E+000
  1.12640E+000	  1.64157E-001	  1.64440E-001	  0.00000E+000	  0.00000E+000
  1.22880E+000	  1.56807E-001	  1.57239E-001	  0.00000E+000	  0.00000E+000
  1.33120E+000	  1.49996E-001	  1.50597E-001	  0.00000E+000	  0.00000E+000
  1.43360E+000	  1.43537E-001	  1.44165E-001	  0.00000E+000	  0.00000E+000
  1.53600E+000	  1.37489E-001	  1.38128E-001	  0.00000E+000	  0.00000E+000
  1.63840E+000	  1.31640E-001	  1.32315E-001	  0.00000E+000	  0.00000E+000
  1.84320E+000	  1.20838E-001	  1.21611E-001	  0.00000E+000	  0.00000E+000
  2.04800E+000	  1.10944E-001	  1.11706E-001	  0.00000E+000	  0.00000E+000
  2.25280E+000	  1.01858E-001	  1.02589E-001	  0.00000E+000	  0.00000E+000
  2.45760E+000	  9.37379E-002	  9.45150E-002	  0.00000E+000	  0.00000E+000
  2.66240E+000	  8.66180E-002	  8.74098E-002	  0.00000E+000	  0.00000E+000
  2.86720E+000	  8.01496E-002	  8.09202E-002	  0.00000E+000	  0.00000E+000
  3.07200E+000	  7.42417E-002	  7.49364E-002	  0.00000E+000	  0.00000E+000
  3.27680E+000	  6.90326E-002	  6.98031E-002	  0.00000E+000	  0.00000E+000
  3.68640E+000	  5.96356E-002	  6.05791E-002	  0.00000E+000	  0.00000E+000
  4.09600E+000	  5.10743E-002	  5.22801E-002	  0.00000E+000	  0.00000E+000
  4.50560E+000	  4.34258E-002	  4.47617E-002	  0.00000E+000	  0.00000E+000
  4.91520E+000	  3.69817E-002	  3.82058E-002	  0.00000E+000	  0.00000E+000
  5.32480E+000	  3.20448E-002	  3.31253E-002	  0.00000E+000	  0.00000E+000
  5.73440E+000	  2.77852E-002	  2.85391E-002	  0.00000E+000	  0.00000E+000
  6.14400E+000	  2.43112E-002	  2.46458E-002	  0.00000E+000	  0.00000E+000
  6.55360E+000	  2.16497E-002	  2.17865E-002	  0.00000E+000	  0.00000E+000
  7.37280E+000	  1.76257E-002	  1.76474E-002	  0.00000E+000	  0.00000E+000
  8.19200E+000	  1.58393E-002	  1.59358E-002	  0.00000E+000	  0.00000E+000
  9.01120E+000	  1.33776E-002	  1.37118E-002	  0.00000E+000	  0.00000E+000
  9.83040E+000	  9.56025E-003	  9.97780E-003	  0.00000E+000	  0.00000E+000
  1.06496E+001	  6.27148E-003	  6.85223E-003	  0.00000E+000	  0.00000E+000
  1.14688E+001	  4.46220E-003	  5.10914E-003	  0.00000E+000	  0.00000E+000
  1.22880E+001	  4.38724E-003	  4.79727E-003	  0.00000E+000	  0.00000E+000
  1.31072E+001	  4.12673E-003	  4.28178E-003	  0.00000E+000	  0.00000E+000
  1.47456E+001	  3.17196E-003	  3.44043E-003	  0.00000E+000	  0.00000E+000
  1.63840E+001	  2.62469E-003	  3.15225E-003	  0.00000E+000	  0.00000E+000
  1.80224E+001	  1.32258E-003	  2.45300E-003	  0.00000E+000	  0.00000E+000
  1.96608E+001	  6.34508E-004	  9.23932E-004	  0.00000E+000	  0.00000E+000
  2.12992E+001	  6.25044E-004	  6.44067E-004	  0.00000E+000	  0.00000E+000
  2.29376E+001	  2.82562E-005	 -2.30572E-004	  0.00000E+000	  0.00000E+000
  2.45760E+001	 -2.16092E-004	 -5.93676E-004	  0.00000E+000	  0.00000E+000
  2.62144E+001	  3.57341E-004	 -1.52917E-004	  0.00000E+000	  0.00000E+000
  2.94912E+001	 -4.10432E-004	 -6.03715E-004	  0.00000E+000	  0.00000E+000
  3.27680E+001	 -9.24253E-004	 -1.30814E-003	  0.00000E+000	  0.00000E+000
  3.60448E+001	 -7.94967E-005	 -6.91617E-004	  0.00000E+000	  0.00000E+000
  3.93216E+001	 -1.03901E-003	 -2.22339E-003	  0.00000E+000	  0.00000E+000
  4.25984E+001	 -1.81499E-003	 -2.63770E-003	  0.00000E+000	  0.00000E+000
  4.58752E+001	 -1.94347E-003	 -2.05677E-003	  0.00000E+000	  0.00000E+000
  4.91520E+001	  1.95160E-003	  1.43736E-003	  0.00000E+000	  0.00000E+000
  5.24288E+001	  4.31143E-003	  3.79088E-003	  0.00000E+000	  0.00000E+000
  5.89824E+001	  4.76649E-003	  4.25078E-003	  0.00000E+000	  0.00000E+000
  6.55360E+001	  6.41253E-004	  1.43040E-004	  0.00000E+000	  0.00000E+000
  7.20896E+001	  1.74829E-003	  5.94140E-004	  0.00000E+000	  0.00000E+000
  7.86432E+001	  2.05803E-003	  9.72320E-004	  0.00000E+000	  0.00000E+000
  8.51968E+001	  1.06717E-003	  1.07512E-003	  0.00000E+000	  0.00000E+000
  9.17504E+001	  8.45691E-004	  6.08640E-004	  0.00000E+000	  0.00000E+000
  9.83040E+001	  1.44460E-003	  2.07606E-003	  0.00000E+000	  0.00000E+000
  1.04858E+002	 -7.21632E-004	 -8.36658E-004	  0.00000E+000	  0.00000E+000
  1.17965E+002	  1.07822E-003	  7.07050E-004	  0.00000E+000	  0.00000E+000
  1.31072E+002	 -3.93472E-004	  1.43180E-004	  0.00000E+000	  0.00000E+000
  1.44179E+002	 -4.02661E-003	 -3.87789E-003	  0.00000E+000	  0.00000E+000
  1.57286E+002	 -1.35293E-003	 -2.55937E-003	  0.00000E+000	  0.00000E+000
  1.70394E+002	  1.06644E-003	  3.48394E-004	  0.00000E+000	  0.00000E+000
  1.83501E+002	  4.32738E-005	  3.15914E-004	  0.00000E+000	  0.00000E+000
  1.96608E+002	 -8.76057E-005	 -9.50281E-004	  0.00000E+000	  0.00000E+000
  2.09715E+002	  1.40695E-003	  5.53930E-004	  0.00000E+000	  0.00000E+000
  2.35930E+002	 -4.18010E-004	 -1.29434E-003	  0.00000E+000	  0.00000E+000
  2.62144E+002	 -7.63678E-004	 -8.25966E-004	  0.00000E+000	  0.00000E+000
  2.88358E+002	 -2.87777E-004	 -4.83460E-004	  0.00000E+000	  0.00000E+000
  3.14573E+002	  7.12463E-004	  1.49005E-003	  0.00000E+000	  0.00000E+000
  3.40787E+002	 -2.28466E-003	 -2.79312E-003	  0.00000E+000	  0.00000E+000
  3.67002E+002	  1.04834E-003	  5.89874E-004	  0.00000E+000	  0.00000E+000
  3.93216E+002	  1.69151E-004	 -2.02904E-006	  0.00000E+000	  0.00000E+000
  4.19430E+002	 -8.19147E-004	 -9.66291E-004	  0.00000E+000	  0.00000E+000
  4.71859E+002	  1.16493E-003	  1.70219E-003	  0.00000E+000	  0.00000E+000
  5.24288E+002	 -4.45399E-004	  3.04661E-004	  0.00000E+000	  0.00000E+000
  5.76717E+002	 -1.14853E-003	 -1.05380E-003	  0.00000E+000	  0.00000E+000
  6.29146E+002	  1.12083E-004	  1.69395E-005	  0.00000E+000	  0.00000E+000
  6.81574E+002	  1.91666E-003	  2.18532E-003	  0.00000E+000	  0.00000E+000
  7.34003E+002	  3.17802E-004	  2.99059E-004	  0.00000E+000	  0.00000E+000
  7.86432E+002	  3.40911E-004	  2.04676E-004	  0.00000E+000	  0.00000E+000
  8.38861E+002	 -1.65929E-004	 -5.51077E-004	  0.00000E+000	  0.00000E+000
  9.43718E+002	  5.32832E-004	 -2.14131E-004	  0.00000E+000	  0.00000E+000
  1.04858E+003	  1.59614E-003	  1.75771E-003	  0.00000E+000	  0.00000E+000
  1.15343E+003	 -1.00398E-003	 -1.04818E-003	  0.00000E+000	  0.00000E+000
  1.25829E+003	  2.53434E-004	  3.13636E-004	  0.00000E+000	  0.00000E+000
  1.36315E+003	 -4.18284E-004	 -8.01755E-004	  0.00000E+000	  0.00000E+000
  1.46801E+003	 -3.46041E-004	 -5.59692E-004	  0.00000E+000	  0.00000E+000
  1.57286E+003	 -8.60794E-004	 -1.06328E-003	  0.00000E+000	  0.00000E+000
  1.67772E+003	  1.01518E-003	  1.37940E-003	  0.00000E+000	  0.00000E+000
  1.88744E+003	 -7.10687E-005	  3.36741E-004	  0.00000E+000	  0.00000E+000
  2.09715E+003	  1.76830E-004	 -9.67719E-006	  0.00000E+000	  0.00000E+000
  2.30687E+003	 -6.73264E-004	 -8.38487E-004	  0.00000E+000	  0.00000E+000
  2.51658E+003	  2.57822E-004	  1.25976E-004	  0.00000E+000	  0.00000E+000
  2.72630E+003	  7.56275E-004	  9.87100E-004	  0.00000E+000	  0.00000E+000
  2.93601E+003	 -9.38292E-004	 -4.41128E-004	  0.00000E+000	  0.00000E+000
  3.14573E+003	 -1.55012E-003	 -1.42895E-003	  0.00000E+000	  0.00000E+000
  3.35544E+003	 -4.99595E-004	 -2.24980E-004	  0.00000E+000	  0.00000E+000
  3.77487E+003	 -1.60828E-003	 -1.33302E-003	  0.00000E+000	  0.00000E+000
  4.19430E+003	  5.21384E-005	 -5.46374E-005	  0.00000E+000	  0.00000E+000
  4.61373E+003	 -2.83335E-004	  2.34851E-004	  0.00000E+000	  0.00000E+000
  5.03317E+003	 -4.73219E-004	 -7.44395E-004	  0.00000E+000	  0.00000E+000
  5.45260E+003	  1.74716E-004	  5.15810E-004	  0.00000E+000	  0.00000E+000
  5.87203E+003	 -2.85086E-004	 -2.77578E-004	  0.00000E+000	  0.00000E+000

"Count Rate"
       0.09766	     570.28589	     428.95047	       0.00000	       0.00000
       0.19531	     544.26471	     463.52939	       0.00000	       0.00000
       0.29297	     537.06842	     470.83826	       0.00000	       0.00000
       0.39063	     778.57831	     636.78223	       0.00000	       0.00000
       0.48828	     607.43420	     458.45209	       0.00000	       0.00000
       0.58594	     581.76105	     434.02780	       0.00000	       0.00000
       0.68359	     551.44049	     406.58371	       0.00000	       0.00000
       0.78125	     627.22131	     478.49518	       0.00000	       0.00000
       0.87891	     555.27917	     471.96426	       0.00000	       0.00000
       0.97656	     512.98193	     404.31122	       0.00000	       0.00000
       1.07422	     520.46484	     418.39664	       0.00000	       0.00000
       1.17188	     611.59021	     496.42953	       0.00000	       0.00000
       1.26953	     750.07990	     579.00739	       0.00000	       0.00000
       1.36719	     537.84644	     414.44534	       0.00000	       0.00000
       1.46484	     584.48395	     467.66495	       0.00000	       0.00000
       1.56250	     588.38403	     444.12097	       0.00000	       0.00000
       1.66016	     527.57922	     431.24347	       0.00000	       0.00000
       1.75781	     653.17090	     531.01868	       0.00000	       0.00000
       1.85547	     655.28986	     527.79419	       0.00000	       0.00000
       1.95313	     559.03601	     479.18100	       0.00000	       0.00000
       2.05078	     586.06036	     501.84464	       0.00000	       0.00000
       2.14844	     638.20514	     532.35968	       0.00000	       0.00000
       2.24609	     561.65656	     433.43408	       0.00000	       0.00000
       2.34375	     678.99756	     553.94843	       0.00000	       0.00000
       2.44141	     595.90790	     497.77051	       0.00000	       0.00000
       2.53906	     622.76843	     522.95233	       0.00000	       0.00000
       2.63672	     628.18359	     582.67206	       0.00000	       0.00000
       2.73438	     479.12982	     437.62079	       0.00000	       0.00000
       2.83203	     585.74304	     486.25443	       0.00000	       0.00000
       2.92969	     699.36823	     611.59021	       0.00000	       0.00000
       3.02734	     611.06812	     488.90570	       0.00000	       0.00000
       3.12500	     638.23584	     548.11365	       0.00000	       0.00000
       3.22266	     609.53265	     466.80508	       0.00000	       0.00000
       3.32031	     598.62054	     475.10687	       0.00000	       0.00000
       3.41797	     723.03503	     602.88916	       0.00000	       0.00000
       3.51563	     626.42291	     503.16513	       0.00000	       0.00000
       3.61328	     730.74310	     557.51074	       0.00000	       0.00000
       3.71094	     723.05548	     616.88245	       0.00000	       0.00000
       3.80859	     597.49451	     475.71085	       0.00000	       0.00000
       3.90625	     737.71417	     637.39642	       0.00000	       0.00000
       4.00391	     582.96893	     496.04053	       0.00000	       0.00000
       4.10156	     711.40637	     584.51465	       0.00000	       0.00000
       4.19922	     670.79816	     505.20221	       0.00000	       0.00000
       4.29688	     616.70844	     500.13513	       0.00000	       0.00000
       4.39453	     622.76843	     524.09882	       0.00000	       0.00000
       4.49219	     702.38800	     514.93713	       0.00000	       0.00000
       4.58984	     733.40460	     603.15533	       0.00000	       0.00000
       4.68750	     633.47583	     503.36987	       0.00000	       0.00000
       4.78516	     449.60776	     369.26141	       0.00000	       0.00000
       4.88281	     464.52234	     395.92752	       0.00000	       0.00000
       4.98047	     703.86206	     638.90118	       0.00000	       0.00000
       5.07813	     650.37634	     516.17572	       0.00000	       0.00000
       5.17578	     756.81549	     666.01770	       0.00000	       0.00000
       5.27344	     790.50385	     649.44476	       0.00000	       0.00000
       5.37109	     491.36246	     364.20459	       0.00000	       0.00000
       5.46875	     562.86444	     436.72000	       0.00000	       0.00000
       5.56641	     653.31421	     511.41577	       0.00000	       0.00000
       5.66406	     608.14050	     492.06876	       0.00000	       0.00000
       5.76172	     473.88873	     396.72598	       0.00000	       0.00000
       5.85938	     674.08405	     561.09351	       0.00000	       0.00000
       5.95703	     817.69196	     612.14294	       0.00000	       0.00000
       6.05469	     614.78400	     494.45389	       0.00000	       0.00000
       6.15234	     668.08545	     499.08078	       0.00000	       0.00000
       6.25000	     692.84760	     619.13452	       0.00000	       0.00000
       6.34766	     669.68237	     557.18317	       0.00000	       0.00000
       6.44531	     714.58990	     565.51569	       0.00000	       0.00000
       6.54297	     552.92480	     464.22546	       0.00000	       0.00000
       6.64063	     595.52911	     493.43024	       0.00000	       0.00000
       6.73828	     538.32751	     462.56717	       0.00000	       0.00000
       6.83594	     612.28625	     488.43481	       0.00000	       0.00000
       6.93359	     659.39465	     494.79169	       0.00000	       0.00000
       7.03125	     700.12573	     542.57568	       0.00000	       0.00000
       7.12891	     541.52130	     422.46054	       0.00000	       0.00000
       7.22656	     825.61505	     608.60114	       0.00000	       0.00000
       7.32422	     588.81396	     445.46198	       0.00000	       0.00000
       7.42188	     495.22162	     388.26038	       0.00000	       0.00000
       7.51953	     614.84540	     505.44788	       0.00000	       0.00000
       7.61719	     744.31671	     579.37592	       0.00000	       0.00000
       7.71484	     674.92346	     476.04865	       0.00000	       0.00000
       7.81250	     537.20154	     437.99954	       0.00000	       0.00000
       7.91016	     597.59692	     464.09241	       0.00000	       0.00000
       8.00781	     716.46320	     577.28766	       0.00000	       0.00000
       8.10547	     556.32330	     466.84604	       0.00000	       0.00000
       8.20313	     551.91138	     430.99777	       0.00000	       0.00000
       8.30078	     544.07019	     429.43161	       0.00000	       0.00000
       8.39844	     661.41125	     489.50964	       0.00000	       0.00000
       8.49609	     641.58313	     517.64978	       0.00000	       0.00000
       8.59375	     688.87579	     535.16443	       0.00000	       0.00000
       8.69141	     614.18005	     496.70590	       0.00000	       0.00000
       8.78906	     644.14227	     471.12488	       0.00000	       0.00000
       8.88672	     567.94177	     465.94522	       0.00000	       0.00000
       8.98438	     675.72192	     485.47647	       0.00000	       0.00000
       9.08203	     763.54089	     590.94318	       0.00000	       0.00000
       9.17969	     557.65405	     470.60281	       0.00000	       0.00000
       9.27734	     615.15253	     482.50787	       0.00000	       0.00000
       9.37500	     660.38763	     517.41437	       0.00000	       0.00000
       9.47266	     760.34711	     621.90857	       0.00000	       0.00000
       9.57031	     671.99579	     514.16937	       0.00000	       0.00000
       9.66797	     649.87469	     508.09915	       0.00000	       0.00000
       9.76563	     554.46027	     474.84073	       0.00000	       0.00000
       9.86328	     596.56299	     513.90326	       0.00000	       0.00000
       9.96094	     532.69745	     451.55267	       0.00000	       0.00000
      10.05859	     571.67804	     440.94766	       0.00000	       0.00000
      10.15625	     630.00568	     505.58096	       0.00000	       0.00000
      10.25391	     740.41663	     604.67035	       0.00000	       0.00000
      10.35156	     618.85809	     467.66495	       0.00000	       0.00000
      10.44922	     616.48328	     502.56119	       0.00000	       0.00000
      10.54688	     758.55566	     623.60785	       0.00000	       0.00000
      10.64453	     770.17413	     630.65057	       0.00000	       0.00000
      10.74219	     646.46594	     537.85663	       0.00000	       0.00000
      10.83984	     753.70361	     623.36218	       0.00000	       0.00000
      10.93750	     606.68689	     443.22018	       0.00000	       0.00000
      11.03516	     647.04944	     533.84393	       0.00000	       0.00000
      11.13281	     528.30597	     396.23462	       0.00000	       0.00000
      11.23047	     587.33990	     504.91559	       0.00000	       0.00000
      11.32813	     566.02753	     489.50964	       0.00000	       0.00000
      11.42578	     734.02905	     575.72150	       0.00000	       0.00000
      11.52344	     667.04132	     591.07623	       0.00000	       0.00000
      11.62109	     679.45825	     519.39001	       0.00000	       0.00000
      11.71875	     679.90863	     532.03210	       0.00000	       0.00000
      11.81641	     528.06030	     437.24207	       0.00000	       0.00000
      11.91406	     679.25348	     567.56299	       0.00000	       0.00000
      12.01172	     604.00494	     493.09241	       0.00000	       0.00000
      12.10938	     668.84296	     614.40521	       0.00000	       0.00000
      12.20703	     685.78436	     606.77905	       0.00000	       0.00000
      12.30469	     722.70746	     537.02753	       0.00000	       0.00000
      12.40234	     677.39044	     589.95026	       0.00000	       0.00000
      12.50000	     720.79321	     614.23120	       0.00000	       0.00000
      12.59766	     645.80060	     547.93964	       0.00000	       0.00000
      12.69531	     671.44305	     528.64380	       0.00000	       0.00000
      12.79297	     561.20612	     448.92191	       0.00000	       0.00000
      12.89063	     611.43665	     484.98511	       0.00000	       0.00000
      12.98828	     709.81970	     522.37909	       0.00000	       0.00000
      13.08594	     615.20367	     477.50223	       0.00000	       0.00000
      13.18359	     657.90015	     560.97070	       0.00000	       0.00000
      13.28125	     678.91571	     556.91705	       0.00000	       0.00000
      13.37891	     529.25800	     459.63953	       0.00000	       0.00000
      13.47656	     791.35345	     720.01526	       0.00000	       0.00000
      13.57422	     557.27533	     483.65436	       0.00000	       0.00000
      13.67188	     671.12573	     566.04797	       0.00000	       0.00000
      13.76953	     677.98419	     523.61768	       0.00000	       0.00000
      13.86719	     625.69611	     502.95016	       0.00000	       0.00000
      13.96484	     563.55029	     432.91202	       0.00000	       0.00000
      14.06250	     592.55029	     481.32043	       0.00000	       0.00000
      14.16016	     695.70355	     602.67419	       0.00000	       0.00000
      14.25781	     762.73218	     637.23267	       0.00000	       0.00000
      14.35547	     743.68207	     571.84186	       0.00000	       0.00000
      14.45313	     529.94385	     418.56042	       0.00000	       0.00000
      14.55078	     641.43982	     486.81744	       0.00000	       0.00000
      14.64844	     645.04309	     581.23895	       0.00000	       0.00000
      14.74609	     608.37592	     453.15982	       0.00000	       0.00000
      14.84375	     580.62476	     480.92120	       0.00000	       0.00000
      14.94141	     697.43353	     555.99573	       0.00000	       0.00000
      15.03906	     667.11298	     512.79767	       0.00000	       0.00000
      15.13672	     621.54010	     523.48462	       0.00000	       0.00000
      15.23438	     563.66290	     448.38962	       0.00000	       0.00000
      15.33203	     508.99994	     435.70657	       0.00000	       0.00000
      15.42969	     498.57919	     394.79126	       0.00000	       0.00000
      15.52734	     578.35229	     428.73550	       0.00000	       0.00000
      15.62500	     622.30780	     526.11536	       0.00000	       0.00000
      15.72266	     560.56122	     437.09875	       0.00000	       0.00000
      15.82031	     563.74475	     418.87778	       0.00000	       0.00000
      15.91797	     716.33014	     571.68829	       0.00000	       0.00000
      16.01563	     635.86096	     507.48495	       0.00000	       0.00000
      16.11328	     660.19312	     588.05646	       0.00000	       0.00000
      16.21094	     573.41827	     491.18845	       0.00000	       0.00000
      16.30859	     567.78821	     471.25797	       0.00000	       0.00000
      16.40625	     654.98273	     483.45987	       0.00000	       0.00000
      16.50391	     620.22980	     511.29294	       0.00000	       0.00000
      16.60156	     774.85223	     599.47015	       0.00000	       0.00000
      16.69922	     627.42609	     515.25446	       0.00000	       0.00000
      16.79688	     585.52808	     475.68011	       0.00000	       0.00000
      16.89453	     601.48676	     503.45175	       0.00000	       0.00000
      16.99219	     596.85986	     536.08575	       0.00000	       0.00000
      17.08984	     634.23334	     556.71228	       0.00000	       0.00000
      17.18750	     621.23297	     491.85379	       0.00000	       0.00000
      17.28516	     666.39642	     547.32544	       0.00000	       0.00000
      17.38281	     502.63284	     382.33344	       0.00000	       0.00000
      17.48047	     683.35834	     574.91278	       0.00000	       0.00000
      17.57813	     579.64209	     438.03027	       0.00000	       0.00000
      17.67578	     736.77240	     600.34027	       0.00000	       0.00000
      17.77344	     564.96289	     435.16403	       0.00000	       0.00000
      17.87109	     550.40662	     417.23993	       0.00000	       0.00000
      17.96875	     534.08960	     388.64935	       0.00000	       0.00000
      18.06641	     624.26300	     506.36917	       0.00000	       0.00000
      18.16406	     548.85065	     454.39844	       0.00000	       0.00000
      18.26172	     621.81647	     488.34268	       0.00000	       0.00000
      18.35938	     698.39575	     590.98413	       0.00000	       0.00000
      18.45703	     601.22064	     477.28726	       0.00000	       0.00000
      18.55469	     781.86420	     564.98340	       0.00000	       0.00000
      18.65234	     618.21320	     478.31091	       0.00000	       0.00000
      18.75000	     596.06140	     475.76202	       0.00000	       0.00000
      18.84766	     607.63892	     484.55518	       0.00000	       0.00000
      18.94531	     650.70386	     503.29822	       0.00000	       0.00000
      19.04297	     709.08264	     582.25238	       0.00000	       0.00000
      19.14063	     741.91113	     570.67487	       0.00000	       0.00000
      19.23828	     712.79852	     569.01660	       0.00000	       0.00000
      19.33594	     637.48853	     524.82556	       0.00000	       0.00000
      19.43359	     813.18793	     622.23615	       0.00000	       0.00000
      19.53125	     558.31946	     452.49445	       0.00000	       0.00000
      19.62891	     578.51605	     475.21948	       0.00000	       0.00000
      19.72656	     638.72717	     475.96674	       0.00000	       0.00000
      19.82422	     607.39325	     489.10019	       0.00000	       0.00000
      19.92188	     575.13800	     459.68048	       0.00000	       0.00000
      20.01953	     570.44971	     464.45068	       0.00000	       0.00000
      20.11719	     590.40063	     548.79950	       0.00000	       0.00000
      20.21484	     697.24927	     586.27533	       0.00000	       0.00000
      20.31250	     661.09393	     546.81360	       0.00000	       0.00000
      20.41016	     668.01379	     538.45038	       0.00000	       0.00000
      20.50781	     620.80304	     464.86014	       0.00000	       0.00000
      20.60547	     672.13910	     541.29614	       0.00000	       0.00000
      20.70313	     549.87433	     448.73764	       0.00000	       0.00000
      20.80078	     655.99615	     600.28912	       0.00000	       0.00000
      20.89844	     711.15045	     613.07446	       0.00000	       0.00000
      20.99609	     685.25208	     558.13519	       0.00000	       0.00000
      21.09375	     711.19141	     585.24146	       0.00000	       0.00000
      21.19141	     780.91223	     599.32684	       0.00000	       0.00000
      21.28906	     616.17615	     491.89474	       0.00000	       0.00000
      21.38672	     695.76495	     559.27142	       0.00000	       0.00000
      21.48438	     575.34271	     462.46481	       0.00000	       0.00000
      21.58203	     712.51190	     565.49524	       0.00000	       0.00000
      21.67969	     579.31451	     487.67731	       0.00000	       0.00000
      21.77734	     609.93188	     461.66635	       0.00000	       0.00000
      21.87500	     703.81085	     552.20825	       0.00000	       0.00000
      21.97266	     654.12286	     502.72498	       0.00000	       0.00000
      22.07031	     688.33325	     529.30920	       0.00000	       0.00000
      22.16797	     570.20398	     471.70837	       0.00000	       0.00000
      22.26563	     609.03107	     498.82486	       0.00000	       0.00000
      22.36328	     880.13464	     705.22351	       0.00000	       0.00000
      22.46094	     554.15320	     451.88025	       0.00000	       0.00000
      22.55859	     591.76208	     452.71964	       0.00000	       0.00000
      22.65625	     759.14941	     575.21991	       0.00000	       0.00000
      22.75391	     622.70703	     557.06036	       0.00000	       0.00000
      22.85156	     628.63397	     447.24310	       0.00000	       0.00000
      22.94922	     560.94000	     388.76196	       0.00000	       0.00000
      23.04688	     666.23267	     550.94916	       0.00000	       0.00000
      23.14453	     667.34845	     540.13940	       0.00000	       0.00000
      23.24219	     652.17792	     541.21423	       0.00000	       0.00000
      23.33984	     706.81018	     579.03809	       0.00000	       0.00000
      23.43750	     695.03821	     555.32013	       0.00000	       0.00000
      23.53516	     617.06671	     487.13477	       0.00000	       0.00000
      23.63281	     625.08191	     488.72144	       0.00000	       0.00000
      23.73047	     636.39325	     499.82803	       0.00000	       0.00000
      23.82813	     683.22528	     554.13269	       0.00000	       0.00000
      23.92578	     714.44659	     634.55066	       0.00000	       0.00000
      24.02344	     553.24213	     426.64728	       0.00000	       0.00000
      24.12109	     689.25458	     561.19586	       0.00000	       0.00000
      24.21875	     660.58209	     558.71863	       0.00000	       0.00000
      24.31641	     611.42639	     488.97736	       0.00000	       0.00000
      24.41406	     640.93823	     559.52734	       0.00000	       0.00000
      24.51172	     543.38434	     435.52231	       0.00000	       0.00000
      24.60938	     742.83240	     572.41510	       0.00000	       0.00000
      24.70703	     632.53406	     497.37128	       0.00000	       0.00000
      24.80469	     715.57263	     570.98199	       0.00000	       0.00000

Monitor Diode	  23475.13
