ALV-7004 or ALV-7004/FAST Data
Date :	"04.06.2015"
Time :	"16:15:46"
Samplename : 	""
SampMemo(0) : 	""
SampMemo(1) : 	""
SampMemo(2) : 	""
SampMemo(3) : 	""
SampMemo(4) : 	""
SampMemo(5) : 	""
SampMemo(6) : 	""
SampMemo(7) : 	""
SampMemo(8) : 	""
SampMemo(9) : 	""
Temperature [K] :	     297.90455
Viscosity [cp]  :	       0.89000
Refractive Index:	       1.33200
Wavelength [nm] :	     632.80000
Angle [°]       :	      66.80000
Duration [s]    :	        29
Runs            :	         1
Mode            :	"C-CH0/1+1/0 "
MeanCR0 [kHz]   :	     419.23404
MeanCR1 [kHz]   :	     390.63300
MeanCR2 [kHz]   :	       0.00000
MeanCR3 [kHz]   :	       0.00000

"Correlation"
  2.50000E-005	  2.90609E-001	  2.87493E-001	  0.00000E+000	  0.00000E+000
  5.00000E-005	  2.91064E-001	  2.90670E-001	  0.00000E+000	  0.00000E+000
  7.50000E-005	  2.95963E-001	  3.03840E-001	  0.00000E+000	  0.00000E+000
  1.00000E-004	  2.93896E-001	  2.94708E-001	  0.00000E+000	  0.00000E+000
  1.25000E-004	  2.93059E-001	  2.96661E-001	  0.00000E+000	  0.00000E+000
  1.50000E-004	  2.97170E-001	  2.99098E-001	  0.00000E+000	  0.00000E+000
  1.75000E-004	  2.92871E-001	  2.92271E-001	  0.00000E+000	  0.00000E+000
  2.00000E-004	  2.94266E-001	  2.93714E-001	  0.00000E+000	  0.00000E+000
  2.25000E-004	  2.92174E-001	  2.90064E-001	  0.00000E+000	  0.00000E+000
  2.50000E-004	  2.91119E-001	  2.95860E-001	  0.00000E+000	  0.00000E+000
  2.75000E-004	  2.95315E-001	  2.96891E-001	  0.00000E+000	  0.00000E+000
  3.00000E-004	  2.94351E-001	  2.90306E-001	  0.00000E+000	  0.00000E+000
  3.25000E-004	  2.95193E-001	  2.92950E-001	  0.00000E+000	  0.00000E+000
  3.50000E-004	  2.92483E-001	  2.90100E-001	  0.00000E+000	  0.00000E+000
  3.75000E-004	  2.91489E-001	  2.92137E-001	  0.00000E+000	  0.00000E+000
  4.00000E-004	  2.96600E-001	  2.95363E-001	  0.00000E+000	  0.00000E+000
  4.50000E-004	  2.93544E-001	  2.96297E-001	  0.00000E+000	  0.00000E+000
  5.00000E-004	  2.92171E-001	  2.92337E-001	  0.00000E+000	  0.00000E+000
  5.50000E-004	  2.93320E-001	  2.88687E-001	  0.00000E+000	  0.00000E+000
  6.00000E-004	  2.94184E-001	  2.94884E-001	  0.00000E+000	  0.00000E+000
  6.50000E-004	  2.96315E-001	  2.97637E-001	  0.00000E+000	  0.00000E+000
  7.00000E-004	  2.92216E-001	  2.94296E-001	  0.00000E+000	  0.00000E+000
  7.50000E-004	  2.96455E-001	  2.96873E-001	  0.00000E+000	  0.00000E+000
  8.00000E-004	  2.97652E-001	  2.98131E-001	  0.00000E+000	  0.00000E+000
  9.00000E-004	  2.96120E-001	  2.94357E-001	  0.00000E+000	  0.00000E+000
  1.00000E-003	  2.95124E-001	  2.96370E-001	  0.00000E+000	  0.00000E+000
  1.10000E-003	  2.93421E-001	  2.91040E-001	  0.00000E+000	  0.00000E+000
  1.20000E-003	  2.93966E-001	  2.94827E-001	  0.00000E+000	  0.00000E+000
  1.30000E-003	  2.94282E-001	  2.94708E-001	  0.00000E+000	  0.00000E+000
  1.40000E-003	  2.95257E-001	  2.94854E-001	  0.00000E+000	  0.00000E+000
  1.50000E-003	  2.94845E-001	  2.95760E-001	  0.00000E+000	  0.00000E+000
  1.60000E-003	  2.95565E-001	  2.97728E-001	  0.00000E+000	  0.00000E+000
  1.80000E-003	  2.94423E-001	  2.94834E-001	  0.00000E+000	  0.00000E+000
  2.00000E-003	  2.94874E-001	  2.93403E-001	  0.00000E+000	  0.00000E+000
  2.20000E-003	  2.94526E-001	  2.93300E-001	  0.00000E+000	  0.00000E+000
  2.40000E-003	  2.95346E-001	  2.95357E-001	  0.00000E+000	  0.00000E+000
  2.60000E-003	  2.94403E-001	  2.94880E-001	  0.00000E+000	  0.00000E+000
  2.80000E-003	  2.93743E-001	  2.94260E-001	  0.00000E+000	  0.00000E+000
  3.00000E-003	  2.93860E-001	  2.93805E-001	  0.00000E+000	  0.00000E+000
  3.20000E-003	  2.94183E-001	  2.93368E-001	  0.00000E+000	  0.00000E+000
  3.60000E-003	  2.94146E-001	  2.95257E-001	  0.00000E+000	  0.00000E+000
  4.00000E-003	  2.94005E-001	  2.93710E-001	  0.00000E+000	  0.00000E+000
  4.40000E-003	  2.93438E-001	  2.94607E-001	  0.00000E+000	  0.00000E+000
  4.80000E-003	  2.93813E-001	  2.93098E-001	  0.00000E+000	  0.00000E+000
  5.20000E-003	  2.95071E-001	  2.95564E-001	  0.00000E+000	  0.00000E+000
  5.60000E-003	  2.93970E-001	  2.94478E-001	  0.00000E+000	  0.00000E+000
  6.00000E-003	  2.93321E-001	  2.92678E-001	  0.00000E+000	  0.00000E+000
  6.40000E-003	  2.93387E-001	  2.92597E-001	  0.00000E+000	  0.00000E+000
  7.20000E-003	  2.94349E-001	  2.93904E-001	  0.00000E+000	  0.00000E+000
  8.00000E-003	  2.93321E-001	  2.93050E-001	  0.00000E+000	  0.00000E+000
  8.80000E-003	  2.93274E-001	  2.93358E-001	  0.00000E+000	  0.00000E+000
  9.60000E-003	  2.93621E-001	  2.94293E-001	  0.00000E+000	  0.00000E+000
  1.04000E-002	  2.93339E-001	  2.93434E-001	  0.00000E+000	  0.00000E+000
  1.12000E-002	  2.93241E-001	  2.93562E-001	  0.00000E+000	  0.00000E+000
  1.20000E-002	  2.93543E-001	  2.93819E-001	  0.00000E+000	  0.00000E+000
  1.28000E-002	  2.93223E-001	  2.93287E-001	  0.00000E+000	  0.00000E+000
  1.44000E-002	  2.93899E-001	  2.94023E-001	  0.00000E+000	  0.00000E+000
  1.60000E-002	  2.92477E-001	  2.92136E-001	  0.00000E+000	  0.00000E+000
  1.76000E-002	  2.92391E-001	  2.92197E-001	  0.00000E+000	  0.00000E+000
  1.92000E-002	  2.92661E-001	  2.93112E-001	  0.00000E+000	  0.00000E+000
  2.08000E-002	  2.93052E-001	  2.93129E-001	  0.00000E+000	  0.00000E+000
  2.24000E-002	  2.92021E-001	  2.91283E-001	  0.00000E+000	  0.00000E+000
  2.40000E-002	  2.92294E-001	  2.92061E-001	  0.00000E+000	  0.00000E+000
  2.56000E-002	  2.91921E-001	  2.91826E-001	  0.00000E+000	  0.00000E+000
  2.88000E-002	  2.91689E-001	  2.91959E-001	  0.00000E+000	  0.00000E+000
  3.20000E-002	  2.91215E-001	  2.91115E-001	  0.00000E+000	  0.00000E+000
  3.52000E-002	  2.91385E-001	  2.91571E-001	  0.00000E+000	  0.00000E+000
  3.84000E-002	  2.90843E-001	  2.91210E-001	  0.00000E+000	  0.00000E+000
  4.16000E-002	  2.90504E-001	  2.90863E-001	  0.00000E+000	  0.00000E+000
  4.48000E-002	  2.90342E-001	  2.90496E-001	  0.00000E+000	  0.00000E+000
  4.80000E-002	  2.90012E-001	  2.89755E-001	  0.00000E+000	  0.00000E+000
  5.12000E-002	  2.89721E-001	  2.89310E-001	  0.00000E+000	  0.00000E+000
  5.76000E-002	  2.89377E-001	  2.89563E-001	  0.00000E+000	  0.00000E+000
  6.40000E-002	  2.88512E-001	  2.88615E-001	  0.00000E+000	  0.00000E+000
  7.04000E-002	  2.87972E-001	  2.88452E-001	  0.00000E+000	  0.00000E+000
  7.68000E-002	  2.87500E-001	  2.87306E-001	  0.00000E+000	  0.00000E+000
  8.32000E-002	  2.86981E-001	  2.86919E-001	  0.00000E+000	  0.00000E+000
  8.96000E-002	  2.86298E-001	  2.86434E-001	  0.00000E+000	  0.00000E+000
  9.60000E-002	  2.85592E-001	  2.85439E-001	  0.00000E+000	  0.00000E+000
  1.02400E-001	  2.85051E-001	  2.84941E-001	  0.00000E+000	  0.00000E+000
  1.15200E-001	  2.84113E-001	  2.84102E-001	  0.00000E+000	  0.00000E+000
  1.28000E-001	  2.83250E-001	  2.83166E-001	  0.00000E+000	  0.00000E+000
  1.40800E-001	  2.82322E-001	  2.82427E-001	  0.00000E+000	  0.00000E+000
  1.53600E-001	  2.81047E-001	  2.80975E-001	  0.00000E+000	  0.00000E+000
  1.66400E-001	  2.80088E-001	  2.80044E-001	  0.00000E+000	  0.00000E+000
  1.79200E-001	  2.79083E-001	  2.78956E-001	  0.00000E+000	  0.00000E+000
  1.92000E-001	  2.78033E-001	  2.78023E-001	  0.00000E+000	  0.00000E+000
  2.04800E-001	  2.77068E-001	  2.76914E-001	  0.00000E+000	  0.00000E+000
  2.30400E-001	  2.75137E-001	  2.75158E-001	  0.00000E+000	  0.00000E+000
  2.56000E-001	  2.73172E-001	  2.73199E-001	  0.00000E+000	  0.00000E+000
  2.81600E-001	  2.71271E-001	  2.71220E-001	  0.00000E+000	  0.00000E+000
  3.07200E-001	  2.69301E-001	  2.69375E-001	  0.00000E+000	  0.00000E+000
  3.32800E-001	  2.67520E-001	  2.67410E-001	  0.00000E+000	  0.00000E+000
  3.58400E-001	  2.65727E-001	  2.65780E-001	  0.00000E+000	  0.00000E+000
  3.84000E-001	  2.63833E-001	  2.63790E-001	  0.00000E+000	  0.00000E+000
  4.09600E-001	  2.62042E-001	  2.61997E-001	  0.00000E+000	  0.00000E+000
  4.60800E-001	  2.58438E-001	  2.58446E-001	  0.00000E+000	  0.00000E+000
  5.12000E-001	  2.55024E-001	  2.55052E-001	  0.00000E+000	  0.00000E+000
  5.63200E-001	  2.51473E-001	  2.51444E-001	  0.00000E+000	  0.00000E+000
  6.14400E-001	  2.48147E-001	  2.47983E-001	  0.00000E+000	  0.00000E+000
  6.65600E-001	  2.44669E-001	  2.44555E-001	  0.00000E+000	  0.00000E+000
  7.16800E-001	  2.41494E-001	  2.41405E-001	  0.00000E+000	  0.00000E+000
  7.68000E-001	  2.38364E-001	  2.38413E-001	  0.00000E+000	  0.00000E+000
  8.19200E-001	  2.35386E-001	  2.35369E-001	  0.00000E+000	  0.00000E+000
  9.21600E-001	  2.29109E-001	  2.29082E-001	  0.00000E+000	  0.00000E+000
  1.02400E+000	  2.23218E-001	  2.23181E-001	  0.00000E+000	  0.00000E+000
  1.12640E+000	  2.17556E-001	  2.17522E-001	  0.00000E+000	  0.00000E+000
  1.22880E+000	  2.12085E-001	  2.12111E-001	  0.00000E+000	  0.00000E+000
  1.33120E+000	  2.06741E-001	  2.06799E-001	  0.00000E+000	  0.00000E+000
  1.43360E+000	  2.01472E-001	  2.01513E-001	  0.00000E+000	  0.00000E+000
  1.53600E+000	  1.96495E-001	  1.96518E-001	  0.00000E+000	  0.00000E+000
  1.63840E+000	  1.91666E-001	  1.91695E-001	  0.00000E+000	  0.00000E+000
  1.84320E+000	  1.82239E-001	  1.82245E-001	  0.00000E+000	  0.00000E+000
  2.04800E+000	  1.73354E-001	  1.73298E-001	  0.00000E+000	  0.00000E+000
  2.25280E+000	  1.64978E-001	  1.64898E-001	  0.00000E+000	  0.00000E+000
  2.45760E+000	  1.57270E-001	  1.57158E-001	  0.00000E+000	  0.00000E+000
  2.66240E+000	  1.50004E-001	  1.49920E-001	  0.00000E+000	  0.00000E+000
  2.86720E+000	  1.43248E-001	  1.43251E-001	  0.00000E+000	  0.00000E+000
  3.07200E+000	  1.36916E-001	  1.36826E-001	  0.00000E+000	  0.00000E+000
  3.27680E+000	  1.30970E-001	  1.30959E-001	  0.00000E+000	  0.00000E+000
  3.68640E+000	  1.19827E-001	  1.19829E-001	  0.00000E+000	  0.00000E+000
  4.09600E+000	  1.09863E-001	  1.09930E-001	  0.00000E+000	  0.00000E+000
  4.50560E+000	  1.00935E-001	  1.01115E-001	  0.00000E+000	  0.00000E+000
  4.91520E+000	  9.28493E-002	  9.30692E-002	  0.00000E+000	  0.00000E+000
  5.32480E+000	  8.52642E-002	  8.54880E-002	  0.00000E+000	  0.00000E+000
  5.73440E+000	  7.81052E-002	  7.84080E-002	  0.00000E+000	  0.00000E+000
  6.14400E+000	  7.14760E-002	  7.16556E-002	  0.00000E+000	  0.00000E+000
  6.55360E+000	  6.54118E-002	  6.56676E-002	  0.00000E+000	  0.00000E+000
  7.37280E+000	  5.43720E-002	  5.49518E-002	  0.00000E+000	  0.00000E+000
  8.19200E+000	  4.50314E-002	  4.56981E-002	  0.00000E+000	  0.00000E+000
  9.01120E+000	  3.74509E-002	  3.83487E-002	  0.00000E+000	  0.00000E+000
  9.83040E+000	  3.10090E-002	  3.20889E-002	  0.00000E+000	  0.00000E+000
  1.06496E+001	  2.50358E-002	  2.60776E-002	  0.00000E+000	  0.00000E+000
  1.14688E+001	  2.01945E-002	  2.09831E-002	  0.00000E+000	  0.00000E+000
  1.22880E+001	  1.66887E-002	  1.71882E-002	  0.00000E+000	  0.00000E+000
  1.31072E+001	  1.45656E-002	  1.48757E-002	  0.00000E+000	  0.00000E+000
  1.47456E+001	  1.22802E-002	  1.24173E-002	  0.00000E+000	  0.00000E+000
  1.63840E+001	  1.06199E-002	  1.07500E-002	  0.00000E+000	  0.00000E+000
  1.80224E+001	  8.75136E-003	  8.69115E-003	  0.00000E+000	  0.00000E+000
  1.96608E+001	  6.17679E-003	  5.54310E-003	  0.00000E+000	  0.00000E+000
  2.12992E+001	  3.87734E-003	  2.85956E-003	  0.00000E+000	  0.00000E+000
  2.29376E+001	  2.35223E-003	  1.21804E-003	  0.00000E+000	  0.00000E+000
  2.45760E+001	  2.80111E-003	  1.81749E-003	  0.00000E+000	  0.00000E+000
  2.62144E+001	  4.33543E-003	  3.17696E-003	  0.00000E+000	  0.00000E+000
  2.94912E+001	  6.36847E-003	  5.43731E-003	  0.00000E+000	  0.00000E+000
  3.27680E+001	  4.18232E-003	  3.88696E-003	  0.00000E+000	  0.00000E+000
  3.60448E+001	  1.10350E-003	  6.33728E-004	  0.00000E+000	  0.00000E+000
  3.93216E+001	  9.27635E-004	  5.14934E-005	  0.00000E+000	  0.00000E+000
  4.25984E+001	 -1.27695E-003	 -3.79223E-003	  0.00000E+000	  0.00000E+000
  4.58752E+001	 -3.71184E-004	 -3.31378E-003	  0.00000E+000	  0.00000E+000
  4.91520E+001	 -5.05885E-004	 -1.85369E-003	  0.00000E+000	  0.00000E+000
  5.24288E+001	 -7.44900E-004	 -1.00095E-003	  0.00000E+000	  0.00000E+000
  5.89824E+001	  2.50027E-003	  3.20688E-003	  0.00000E+000	  0.00000E+000
  6.55360E+001	  1.34840E-003	  2.00106E-003	  0.00000E+000	  0.00000E+000
  7.20896E+001	 -1.81108E-003	 -6.77551E-004	  0.00000E+000	  0.00000E+000
  7.86432E+001	 -2.34488E-003	 -8.80562E-004	  0.00000E+000	  0.00000E+000
  8.51968E+001	 -2.62401E-003	 -1.41885E-003	  0.00000E+000	  0.00000E+000
  9.17504E+001	 -8.87661E-004	 -6.14474E-004	  0.00000E+000	  0.00000E+000
  9.83040E+001	 -1.90143E-004	 -1.19519E-003	  0.00000E+000	  0.00000E+000
  1.04858E+002	 -1.86872E-003	 -2.17433E-003	  0.00000E+000	  0.00000E+000
  1.17965E+002	  9.54829E-004	  1.45670E-003	  0.00000E+000	  0.00000E+000
  1.31072E+002	  3.79746E-004	  2.32656E-003	  0.00000E+000	  0.00000E+000
  1.44179E+002	  3.43195E-003	  5.00962E-003	  0.00000E+000	  0.00000E+000
  1.57286E+002	 -1.15249E-003	  1.90948E-003	  0.00000E+000	  0.00000E+000
  1.70394E+002	 -3.58207E-003	 -2.61794E-003	  0.00000E+000	  0.00000E+000
  1.83501E+002	 -2.73724E-004	 -5.43452E-004	  0.00000E+000	  0.00000E+000
  1.96608E+002	  2.76156E-003	  2.53492E-003	  0.00000E+000	  0.00000E+000
  2.09715E+002	  4.39140E-004	 -2.29265E-004	  0.00000E+000	  0.00000E+000
  2.35930E+002	 -2.54361E-003	 -3.05194E-003	  0.00000E+000	  0.00000E+000
  2.62144E+002	  2.16986E-004	  3.30107E-004	  0.00000E+000	  0.00000E+000
  2.88358E+002	 -3.77380E-003	 -2.04829E-003	  0.00000E+000	  0.00000E+000
  3.14573E+002	 -4.42233E-003	 -3.90439E-003	  0.00000E+000	  0.00000E+000
  3.40787E+002	 -1.18827E-003	 -9.74081E-004	  0.00000E+000	  0.00000E+000
  3.67002E+002	  7.98634E-004	  4.87128E-004	  0.00000E+000	  0.00000E+000
  3.93216E+002	  2.33348E-003	  2.66480E-003	  0.00000E+000	  0.00000E+000
  4.19430E+002	  3.08078E-004	  1.69903E-003	  0.00000E+000	  0.00000E+000
  4.71859E+002	 -3.40974E-003	 -3.55253E-003	  0.00000E+000	  0.00000E+000
  5.24288E+002	 -3.04155E-003	 -3.00472E-003	  0.00000E+000	  0.00000E+000
  5.76717E+002	  2.91462E-005	 -3.38912E-004	  0.00000E+000	  0.00000E+000
  6.29146E+002	  1.48109E-003	  2.92962E-005	  0.00000E+000	  0.00000E+000
  6.81574E+002	  1.41472E-003	  3.00592E-004	  0.00000E+000	  0.00000E+000
  7.34003E+002	 -9.92051E-005	  1.61833E-005	  0.00000E+000	  0.00000E+000
  7.86432E+002	  2.28716E-003	  2.62946E-003	  0.00000E+000	  0.00000E+000
  8.38861E+002	  2.63057E-004	  1.29850E-003	  0.00000E+000	  0.00000E+000
  9.43718E+002	  9.23481E-004	 -1.08532E-004	  0.00000E+000	  0.00000E+000
  1.04858E+003	 -7.64340E-004	  2.43320E-004	  0.00000E+000	  0.00000E+000
  1.15343E+003	 -1.09899E-003	 -1.01700E-003	  0.00000E+000	  0.00000E+000
  1.25829E+003	 -2.36986E-003	 -2.27471E-003	  0.00000E+000	  0.00000E+000
  1.36315E+003	 -1.55510E-003	 -1.45805E-003	  0.00000E+000	  0.00000E+000
  1.46801E+003	  1.25844E-003	  2.45944E-003	  0.00000E+000	  0.00000E+000
  1.57286E+003	  1.31067E-004	 -9.96449E-004	  0.00000E+000	  0.00000E+000
  1.67772E+003	  4.56883E-004	  3.05329E-004	  0.00000E+000	  0.00000E+000
  1.88744E+003	  5.04117E-004	  7.69552E-004	  0.00000E+000	  0.00000E+000
  2.09715E+003	 -1.14735E-003	 -1.54961E-003	  0.00000E+000	  0.00000E+000
  2.30687E+003	  2.16798E-003	  2.31459E-003	  0.00000E+000	  0.00000E+000
  2.51658E+003	  1.67442E-003	  1.95907E-003	  0.00000E+000	  0.00000E+000
  2.72630E+003	 -1.19385E-003	 -1.24074E-003	  0.00000E+000	  0.00000E+000
  2.93601E+003	  1.08365E-003	  1.08572E-003	  0.00000E+000	  0.00000E+000
  3.14573E+003	  3.80896E-004	 -6.38181E-005	  0.00000E+000	  0.00000E+000
  3.35544E+003	  4.04361E-004	 -1.80595E-004	  0.00000E+000	  0.00000E+000
  3.77487E+003	 -1.45873E-003	 -8.26560E-004	  0.00000E+000	  0.00000E+000
  4.19430E+003	  2.24034E-003	  2.04529E-003	  0.00000E+000	  0.00000E+000
  4.61373E+003	 -1.41581E-003	 -7.17769E-004	  0.00000E+000	  0.00000E+000
  5.03317E+003	  1.55740E-003	  1.24023E-003	  0.00000E+000	  0.00000E+000
  5.45260E+003	 -4.06647E-004	 -1.97787E-004	  0.00000E+000	  0.00000E+000
  5.87203E+003	 -1.30893E-004	 -1.66947E-004	  0.00000E+000	  0.00000E+000

"Count Rate"
       0.11328	     400.17007	     346.81641	       0.00000	       0.00000
       0.22656	     317.25488	     274.36377	       0.00000	       0.00000
       0.33984	     469.53513	     382.27084	       0.00000	       0.00000
       0.45313	     420.65405	     289.44888	       0.00000	       0.00000
       0.56641	     299.74380	     259.89618	       0.00000	       0.00000
       0.67969	     332.63110	     283.52069	       0.00000	       0.00000
       0.79297	     351.65952	     276.12811	       0.00000	       0.00000
       0.90625	     288.88431	     226.85890	       0.00000	       0.00000
       1.01953	     355.02060	     274.26672	       0.00000	       0.00000
       1.13281	     421.35098	     380.45355	       0.00000	       0.00000
       1.24609	     425.11786	     327.42630	       0.00000	       0.00000
       1.35938	     384.37921	     311.96185	       0.00000	       0.00000
       1.47266	     305.35440	     235.09837	       0.00000	       0.00000
       1.58594	     288.43439	     222.27162	       0.00000	       0.00000
       1.69922	     411.21484	     334.60718	       0.00000	       0.00000
       1.81250	     410.28857	     334.83655	       0.00000	       0.00000
       1.92578	     343.39359	     285.16153	       0.00000	       0.00000
       2.03906	     416.00504	     313.29395	       0.00000	       0.00000
       2.15234	     299.22333	     234.27795	       0.00000	       0.00000
       2.26563	     336.97141	     272.82880	       0.00000	       0.00000
       2.37891	     370.81143	     289.69589	       0.00000	       0.00000
       2.49219	     312.32355	     243.40842	       0.00000	       0.00000
       2.60547	     326.47357	     263.13376	       0.00000	       0.00000
       2.71875	     420.38940	     359.80197	       0.00000	       0.00000
       2.83203	     396.39438	     308.32733	       0.00000	       0.00000
       2.94531	     372.47876	     280.52133	       0.00000	       0.00000
       3.05859	     410.91492	     292.70410	       0.00000	       0.00000
       3.17188	     330.18750	     233.73100	       0.00000	       0.00000
       3.28516	     386.45233	     317.82831	       0.00000	       0.00000
       3.39844	     434.27478	     329.86993	       0.00000	       0.00000
       3.51172	     474.92517	     343.12012	       0.00000	       0.00000
       3.62500	     533.42188	     387.97849	       0.00000	       0.00000
       3.73828	     336.62735	     283.36191	       0.00000	       0.00000
       3.85156	     311.15027	     245.68442	       0.00000	       0.00000
       3.96484	     477.70401	     339.37091	       0.00000	       0.00000
       4.07813	     397.25009	     277.57486	       0.00000	       0.00000
       4.19141	     304.13702	     244.96104	       0.00000	       0.00000
       4.30469	     314.22021	     262.57797	       0.00000	       0.00000
       4.41797	     374.90472	     244.13179	       0.00000	       0.00000
       4.53125	     357.90530	     291.31909	       0.00000	       0.00000
       4.64453	     304.67514	     253.66806	       0.00000	       0.00000
       4.75781	     463.53635	     366.45352	       0.00000	       0.00000
       4.87109	     397.89407	     342.88193	       0.00000	       0.00000
       4.98438	     300.56424	     247.66048	       0.00000	       0.00000
       5.09766	     376.28091	     283.08844	       0.00000	       0.00000
       5.21094	     300.95239	     225.07692	       0.00000	       0.00000
       5.32422	     326.42947	     279.97437	       0.00000	       0.00000
       5.43750	     476.82184	     364.51276	       0.00000	       0.00000
       5.55078	     388.19904	     306.69531	       0.00000	       0.00000
       5.66406	     358.07291	     320.99530	       0.00000	       0.00000
       5.77734	     428.33777	     317.42252	       0.00000	       0.00000
       5.89063	     311.09735	     273.49042	       0.00000	       0.00000
       6.00391	     363.05716	     290.68393	       0.00000	       0.00000
       6.11719	     392.62750	     282.11804	       0.00000	       0.00000
       6.23047	     536.28894	     406.34528	       0.00000	       0.00000
       6.34375	     348.92480	     303.84589	       0.00000	       0.00000
       6.45703	     477.43054	     400.85815	       0.00000	       0.00000
       6.57031	     391.64832	     279.62152	       0.00000	       0.00000
       6.68359	     323.68591	     255.74998	       0.00000	       0.00000
       6.79688	     421.46567	     315.27884	       0.00000	       0.00000
       6.91016	     363.64822	     258.81995	       0.00000	       0.00000
       7.02344	     384.84677	     319.60147	       0.00000	       0.00000
       7.13672	     338.23291	     252.97997	       0.00000	       0.00000
       7.25000	     513.40546	     440.37057	       0.00000	       0.00000
       7.36328	     303.56360	     247.94278	       0.00000	       0.00000
       7.47656	     317.36075	     232.36365	       0.00000	       0.00000
       7.58984	     373.35208	     300.31723	       0.00000	       0.00000
       7.70313	     518.20447	     414.79645	       0.00000	       0.00000
       7.81641	     421.92438	     277.82187	       0.00000	       0.00000
       7.92969	     485.88174	     406.81281	       0.00000	       0.00000
       8.04297	     307.78922	     242.01459	       0.00000	       0.00000
       8.15625	     434.72467	     340.77356	       0.00000	       0.00000
       8.26953	     402.29611	     294.68015	       0.00000	       0.00000
       8.38281	     376.21915	     319.06332	       0.00000	       0.00000
       8.49609	     365.83600	     296.47095	       0.00000	       0.00000
       8.60938	     411.03842	     315.41998	       0.00000	       0.00000
       8.72266	     428.62888	     404.03397	       0.00000	       0.00000
       8.83594	     501.01978	     359.16681	       0.00000	       0.00000
       8.94922	     399.68488	     335.03943	       0.00000	       0.00000
       9.06250	     330.76093	     293.10107	       0.00000	       0.00000
       9.17578	     292.23654	     236.58923	       0.00000	       0.00000
       9.28906	     361.99857	     269.11487	       0.00000	       0.00000
       9.40234	     457.79343	     322.90079	       0.00000	       0.00000
       9.51563	     289.18423	     236.65982	       0.00000	       0.00000
       9.62891	     273.45514	     226.60307	       0.00000	       0.00000
       9.74219	     378.29224	     281.04181	       0.00000	       0.00000
       9.85547	     368.38547	     270.63220	       0.00000	       0.00000
       9.96875	     337.73889	     267.24466	       0.00000	       0.00000
      10.08203	     357.04959	     282.44446	       0.00000	       0.00000
      10.19531	     427.43796	     342.22913	       0.00000	       0.00000
      10.30859	     401.52863	     309.68588	       0.00000	       0.00000
      10.42188	     347.24869	     271.68198	       0.00000	       0.00000
      10.53516	     434.75998	     306.19247	       0.00000	       0.00000
      10.64844	     466.94153	     403.01065	       0.00000	       0.00000
      10.76172	     377.31305	     293.82443	       0.00000	       0.00000
      10.87500	     349.15417	     303.32541	       0.00000	       0.00000
      10.98828	     443.92572	     340.28836	       0.00000	       0.00000
      11.10156	     445.32837	     333.60150	       0.00000	       0.00000
      11.21484	     459.19608	     367.55624	       0.00000	       0.00000
      11.32813	     350.97144	     276.46335	       0.00000	       0.00000
      11.44141	     318.04001	     240.62076	       0.00000	       0.00000
      11.55469	     330.40805	     280.20374	       0.00000	       0.00000
      11.66797	     314.89069	     273.10226	       0.00000	       0.00000
      11.78125	     474.37823	     364.31866	       0.00000	       0.00000
      11.89453	     327.13519	     239.65038	       0.00000	       0.00000
      12.00781	     383.44412	     274.73428	       0.00000	       0.00000
      12.12109	     381.53864	     290.85153	       0.00000	       0.00000
      12.23438	     456.67307	     430.96664	       0.00000	       0.00000
      12.34766	     325.63550	     256.65860	       0.00000	       0.00000
      12.46094	     415.95209	     353.20334	       0.00000	       0.00000
      12.57422	     303.87238	     250.12173	       0.00000	       0.00000
      12.68750	     386.15237	     284.85278	       0.00000	       0.00000
      12.80078	     329.68466	     265.39209	       0.00000	       0.00000
      12.91406	     472.04050	     361.26636	       0.00000	       0.00000
      13.02734	     355.47934	     271.86722	       0.00000	       0.00000
      13.14063	     417.16949	     315.96692	       0.00000	       0.00000
      13.25391	     459.61072	     365.85364	       0.00000	       0.00000
      13.36719	     376.20151	     280.66248	       0.00000	       0.00000
      13.48047	     308.23911	     259.87854	       0.00000	       0.00000
      13.59375	     375.65457	     290.30460	       0.00000	       0.00000
      13.70703	     322.08035	     266.50363	       0.00000	       0.00000
      13.82031	     327.54980	     257.53195	       0.00000	       0.00000
      13.93359	     358.83157	     278.51880	       0.00000	       0.00000
      14.04688	     482.02664	     343.60532	       0.00000	       0.00000
      14.16016	     467.89429	     406.97162	       0.00000	       0.00000
      14.27344	     351.80069	     293.44510	       0.00000	       0.00000
      14.38672	     462.62772	     358.00232	       0.00000	       0.00000
      14.50000	     372.17880	     259.26102	       0.00000	       0.00000
      14.61328	     396.49142	     287.96683	       0.00000	       0.00000
      14.72656	     397.17950	     335.19824	       0.00000	       0.00000
      14.83984	     377.57770	     283.15900	       0.00000	       0.00000
      14.95313	     484.79666	     390.96902	       0.00000	       0.00000
      15.06641	     359.63434	     316.67267	       0.00000	       0.00000
      15.17969	     358.35519	     273.96680	       0.00000	       0.00000
      15.29297	     336.14215	     265.75378	       0.00000	       0.00000
      15.40625	     319.21332	     249.45128	       0.00000	       0.00000
      15.51953	     299.44388	     243.72600	       0.00000	       0.00000
      15.63281	     463.95981	     348.51901	       0.00000	       0.00000
      15.74609	     548.17175	     412.07056	       0.00000	       0.00000
      15.85938	     389.58401	     302.06390	       0.00000	       0.00000
      15.97266	     423.14178	     353.68851	       0.00000	       0.00000
      16.08594	     360.04016	     296.32980	       0.00000	       0.00000
      16.19922	     333.84851	     247.32526	       0.00000	       0.00000
      16.31250	     370.09689	     260.71658	       0.00000	       0.00000
      16.42578	     501.76080	     434.24832	       0.00000	       0.00000
      16.53906	     341.47928	     256.48218	       0.00000	       0.00000
      16.65234	     374.12842	     309.72116	       0.00000	       0.00000
      16.76563	     402.06674	     273.29636	       0.00000	       0.00000
      16.87891	     362.81897	     294.64487	       0.00000	       0.00000
      16.99219	     393.78317	     343.59650	       0.00000	       0.00000
      17.10547	     405.93945	     291.98953	       0.00000	       0.00000
      17.21875	     411.89410	     331.11377	       0.00000	       0.00000
      17.33203	     345.17557	     261.56348	       0.00000	       0.00000
      17.44531	     508.80051	     329.63174	       0.00000	       0.00000
      17.55859	     449.28931	     327.40866	       0.00000	       0.00000
      17.67188	     373.32562	     275.18420	       0.00000	       0.00000
      17.78516	     367.84735	     314.59073	       0.00000	       0.00000
      17.89844	     359.10504	     309.12128	       0.00000	       0.00000
      18.01172	     325.53848	     263.85712	       0.00000	       0.00000
      18.12500	     376.88959	     277.08084	       0.00000	       0.00000
      18.23828	     440.13239	     323.23599	       0.00000	       0.00000
      18.35156	     427.68497	     326.45593	       0.00000	       0.00000
      18.46484	     260.76071	     190.31941	       0.00000	       0.00000
      18.57813	     367.77679	     294.93597	       0.00000	       0.00000
      18.69141	     255.53825	     216.75806	       0.00000	       0.00000
      18.80469	     386.06418	     310.15341	       0.00000	       0.00000
      18.91797	     367.25629	     292.12186	       0.00000	       0.00000
      19.03125	     354.75595	     315.84341	       0.00000	       0.00000
      19.14453	     415.36105	     352.48877	       0.00000	       0.00000
      19.25781	     380.57706	     295.98578	       0.00000	       0.00000
      19.37109	     373.37857	     297.04437	       0.00000	       0.00000
      19.48438	     377.87762	     309.48297	       0.00000	       0.00000
      19.59766	     303.36954	     228.87907	       0.00000	       0.00000
      19.71094	     345.35202	     281.57111	       0.00000	       0.00000
      19.82422	     415.43161	     337.10373	       0.00000	       0.00000
      19.93750	     443.00827	     369.87634	       0.00000	       0.00000
      20.05078	     557.70801	     450.50671	       0.00000	       0.00000
      20.16406	     306.43948	     271.70844	       0.00000	       0.00000
      20.27734	     310.83270	     255.00014	       0.00000	       0.00000
      20.39063	     329.76407	     278.86285	       0.00000	       0.00000
      20.50391	     394.89468	     278.60703	       0.00000	       0.00000
      20.61719	     386.99045	     288.88431	       0.00000	       0.00000
      20.73047	     336.01865	     246.76949	       0.00000	       0.00000
      20.84375	     360.36655	     273.91388	       0.00000	       0.00000
      20.95703	     356.16742	     274.20499	       0.00000	       0.00000
      21.07031	     425.55893	     321.03940	       0.00000	       0.00000
      21.18359	     382.78250	     323.20953	       0.00000	       0.00000
      21.29688	     374.97528	     328.83780	       0.00000	       0.00000
      21.41016	     315.70227	     276.71036	       0.00000	       0.00000
      21.52344	     373.63440	     289.49298	       0.00000	       0.00000
      21.63672	     352.76224	     291.38083	       0.00000	       0.00000
      21.75000	     351.60660	     287.34048	       0.00000	       0.00000
      21.86328	     372.33759	     265.86847	       0.00000	       0.00000
      21.97656	     267.17407	     223.14497	       0.00000	       0.00000
      22.08984	     374.62241	     300.75830	       0.00000	       0.00000
      22.20313	     349.85107	     309.98581	       0.00000	       0.00000
      22.31641	     426.98804	     348.39551	       0.00000	       0.00000
      22.42969	     339.82962	     286.03488	       0.00000	       0.00000
      22.54297	     355.83218	     259.00519	       0.00000	       0.00000
      22.65625	     291.62784	     260.23141	       0.00000	       0.00000
      22.76953	     315.79050	     266.85651	       0.00000	       0.00000
      22.88281	     381.30927	     285.16153	       0.00000	       0.00000
      22.99609	     414.71707	     274.07266	       0.00000	       0.00000
      23.10938	     436.47137	     336.41562	       0.00000	       0.00000
      23.22266	     358.91098	     292.51001	       0.00000	       0.00000
      23.33594	     416.49905	     303.32541	       0.00000	       0.00000
      23.44922	     356.99667	     298.45584	       0.00000	       0.00000
      23.56250	     294.48608	     225.35039	       0.00000	       0.00000
      23.67578	     313.34686	     244.97868	       0.00000	       0.00000
      23.78906	     366.44470	     269.78531	       0.00000	       0.00000
      23.90234	     337.15665	     257.92010	       0.00000	       0.00000
      24.01563	     522.68585	     370.24686	       0.00000	       0.00000
      24.12891	     297.29138	     253.88860	       0.00000	       0.00000
      24.24219	     382.98538	     287.45517	       0.00000	       0.00000
      24.35547	     461.63086	     410.07684	       0.00000	       0.00000
      24.46875	     392.66281	     335.23352	       0.00000	       0.00000
      24.58203	     359.14032	     300.63480	       0.00000	       0.00000
      24.69531	     288.13446	     225.69444	       0.00000	       0.00000
      24.80859	     477.63345	     388.33136	       0.00000	       0.00000
      24.92188	     361.04581	     294.10675	       0.00000	       0.00000
      25.03516	     336.62735	     267.90628	       0.00000	       0.00000
      25.14844	     353.46799	     300.24664	       0.00000	       0.00000
      25.26172	     388.11081	     307.55103	       0.00000	       0.00000
      25.37500	     328.52902	     266.73300	       0.00000	       0.00000
      25.48828	     342.73196	     266.55658	       0.00000	       0.00000
      25.60156	     289.37830	     231.43736	       0.00000	       0.00000
      25.71484	     336.38916	     253.57101	       0.00000	       0.00000
      25.82813	     432.36929	     361.82214	       0.00000	       0.00000
      25.94141	     335.06592	     254.81488	       0.00000	       0.00000
      26.05469	     302.26682	     231.98431	       0.00000	       0.00000
      26.16797	     339.59143	     252.60063	       0.00000	       0.00000
      26.28125	     377.68356	     316.87555	       0.00000	       0.00000
      26.39453	     435.00699	     325.78546	       0.00000	       0.00000
      26.50781	     311.70602	     234.86900	       0.00000	       0.00000
      26.62109	     429.33463	     355.29407	       0.00000	       0.00000
      26.73438	     470.17029	     353.81201	       0.00000	       0.00000
      26.84766	     322.30972	     269.13251	       0.00000	       0.00000
      26.96094	     336.98022	     249.03667	       0.00000	       0.00000
      27.07422	     395.31815	     323.31540	       0.00000	       0.00000
      27.18750	     336.73322	     276.76328	       0.00000	       0.00000
      27.30078	     337.37720	     243.09966	       0.00000	       0.00000
      27.41406	     435.94208	     325.46790	       0.00000	       0.00000
      27.52734	     359.89017	     257.89365	       0.00000	       0.00000
      27.64063	     433.91309	     334.68658	       0.00000	       0.00000
      27.75391	     355.59399	     291.02795	       0.00000	       0.00000
      27.86719	     355.31171	     293.02167	       0.00000	       0.00000
      27.98047	     410.82669	     300.46719	       0.00000	       0.00000
      28.09375	     447.93076	     306.14838	       0.00000	       0.00000
      28.20703	     500.63162	     355.21466	       0.00000	       0.00000
      28.32031	     378.44223	     286.28189	       0.00000	       0.00000
      28.43359	     411.55008	     303.50186	       0.00000	       0.00000
      28.54688	     372.40817	     304.86038	       0.00000	       0.00000
      28.66016	     512.45270	     433.74548	       0.00000	       0.00000
      28.77344	     429.32581	     376.40442	       0.00000	       0.00000

Monitor Diode	   6442.83
