ALV-7004 or ALV-7004/FAST Data
Date :	"04.06.2015"
Time :	"16:08:13"
Samplename : 	""
SampMemo(0) : 	""
SampMemo(1) : 	""
SampMemo(2) : 	""
SampMemo(3) : 	""
SampMemo(4) : 	""
SampMemo(5) : 	""
SampMemo(6) : 	""
SampMemo(7) : 	""
SampMemo(8) : 	""
SampMemo(9) : 	""
Temperature [K] :	     297.93697
Viscosity [cp]  :	       0.89000
Refractive Index:	       1.33200
Wavelength [nm] :	     632.80000
Angle [°]       :	      44.80000
Duration [s]    :	        33
Runs            :	         1
Mode            :	"C-CH0/1+1/0 "
MeanCR0 [kHz]   :	     432.24689
MeanCR1 [kHz]   :	     389.12137
MeanCR2 [kHz]   :	       0.00000
MeanCR3 [kHz]   :	       0.00000

"Correlation"
  2.50000E-005	  3.14426E-001	  3.18308E-001	  0.00000E+000	  0.00000E+000
  5.00000E-005	  3.15532E-001	  3.13765E-001	  0.00000E+000	  0.00000E+000
  7.50000E-005	  3.13488E-001	  3.11599E-001	  0.00000E+000	  0.00000E+000
  1.00000E-004	  3.13495E-001	  3.12269E-001	  0.00000E+000	  0.00000E+000
  1.25000E-004	  3.16121E-001	  3.16087E-001	  0.00000E+000	  0.00000E+000
  1.50000E-004	  3.13904E-001	  3.11620E-001	  0.00000E+000	  0.00000E+000
  1.75000E-004	  3.13004E-001	  3.11667E-001	  0.00000E+000	  0.00000E+000
  2.00000E-004	  3.10641E-001	  3.11207E-001	  0.00000E+000	  0.00000E+000
  2.25000E-004	  3.14822E-001	  3.16318E-001	  0.00000E+000	  0.00000E+000
  2.50000E-004	  3.09788E-001	  3.08824E-001	  0.00000E+000	  0.00000E+000
  2.75000E-004	  3.13735E-001	  3.14239E-001	  0.00000E+000	  0.00000E+000
  3.00000E-004	  3.09250E-001	  3.09061E-001	  0.00000E+000	  0.00000E+000
  3.25000E-004	  3.11944E-001	  3.12371E-001	  0.00000E+000	  0.00000E+000
  3.50000E-004	  3.12198E-001	  3.12669E-001	  0.00000E+000	  0.00000E+000
  3.75000E-004	  3.11034E-001	  3.11261E-001	  0.00000E+000	  0.00000E+000
  4.00000E-004	  3.14023E-001	  3.12703E-001	  0.00000E+000	  0.00000E+000
  4.50000E-004	  3.15409E-001	  3.16957E-001	  0.00000E+000	  0.00000E+000
  5.00000E-004	  3.14844E-001	  3.17827E-001	  0.00000E+000	  0.00000E+000
  5.50000E-004	  3.11985E-001	  3.12896E-001	  0.00000E+000	  0.00000E+000
  6.00000E-004	  3.13358E-001	  3.13522E-001	  0.00000E+000	  0.00000E+000
  6.50000E-004	  3.14576E-001	  3.13769E-001	  0.00000E+000	  0.00000E+000
  7.00000E-004	  3.16439E-001	  3.16389E-001	  0.00000E+000	  0.00000E+000
  7.50000E-004	  3.13953E-001	  3.14398E-001	  0.00000E+000	  0.00000E+000
  8.00000E-004	  3.14801E-001	  3.15405E-001	  0.00000E+000	  0.00000E+000
  9.00000E-004	  3.13992E-001	  3.14822E-001	  0.00000E+000	  0.00000E+000
  1.00000E-003	  3.12691E-001	  3.13210E-001	  0.00000E+000	  0.00000E+000
  1.10000E-003	  3.14013E-001	  3.14610E-001	  0.00000E+000	  0.00000E+000
  1.20000E-003	  3.12907E-001	  3.12080E-001	  0.00000E+000	  0.00000E+000
  1.30000E-003	  3.13795E-001	  3.12714E-001	  0.00000E+000	  0.00000E+000
  1.40000E-003	  3.13727E-001	  3.13496E-001	  0.00000E+000	  0.00000E+000
  1.50000E-003	  3.12737E-001	  3.14603E-001	  0.00000E+000	  0.00000E+000
  1.60000E-003	  3.12684E-001	  3.13043E-001	  0.00000E+000	  0.00000E+000
  1.80000E-003	  3.12603E-001	  3.12874E-001	  0.00000E+000	  0.00000E+000
  2.00000E-003	  3.13710E-001	  3.13371E-001	  0.00000E+000	  0.00000E+000
  2.20000E-003	  3.14912E-001	  3.14420E-001	  0.00000E+000	  0.00000E+000
  2.40000E-003	  3.13404E-001	  3.13406E-001	  0.00000E+000	  0.00000E+000
  2.60000E-003	  3.12847E-001	  3.12499E-001	  0.00000E+000	  0.00000E+000
  2.80000E-003	  3.13834E-001	  3.12820E-001	  0.00000E+000	  0.00000E+000
  3.00000E-003	  3.13006E-001	  3.13219E-001	  0.00000E+000	  0.00000E+000
  3.20000E-003	  3.13961E-001	  3.15018E-001	  0.00000E+000	  0.00000E+000
  3.60000E-003	  3.13276E-001	  3.12948E-001	  0.00000E+000	  0.00000E+000
  4.00000E-003	  3.13934E-001	  3.14270E-001	  0.00000E+000	  0.00000E+000
  4.40000E-003	  3.12449E-001	  3.13349E-001	  0.00000E+000	  0.00000E+000
  4.80000E-003	  3.13779E-001	  3.13705E-001	  0.00000E+000	  0.00000E+000
  5.20000E-003	  3.13311E-001	  3.14101E-001	  0.00000E+000	  0.00000E+000
  5.60000E-003	  3.13513E-001	  3.13508E-001	  0.00000E+000	  0.00000E+000
  6.00000E-003	  3.13451E-001	  3.13219E-001	  0.00000E+000	  0.00000E+000
  6.40000E-003	  3.12791E-001	  3.12219E-001	  0.00000E+000	  0.00000E+000
  7.20000E-003	  3.13565E-001	  3.14110E-001	  0.00000E+000	  0.00000E+000
  8.00000E-003	  3.13423E-001	  3.13607E-001	  0.00000E+000	  0.00000E+000
  8.80000E-003	  3.13094E-001	  3.13670E-001	  0.00000E+000	  0.00000E+000
  9.60000E-003	  3.13532E-001	  3.13221E-001	  0.00000E+000	  0.00000E+000
  1.04000E-002	  3.13161E-001	  3.13379E-001	  0.00000E+000	  0.00000E+000
  1.12000E-002	  3.13093E-001	  3.12410E-001	  0.00000E+000	  0.00000E+000
  1.20000E-002	  3.13915E-001	  3.13852E-001	  0.00000E+000	  0.00000E+000
  1.28000E-002	  3.13720E-001	  3.13686E-001	  0.00000E+000	  0.00000E+000
  1.44000E-002	  3.13129E-001	  3.13314E-001	  0.00000E+000	  0.00000E+000
  1.60000E-002	  3.12903E-001	  3.12912E-001	  0.00000E+000	  0.00000E+000
  1.76000E-002	  3.12504E-001	  3.11816E-001	  0.00000E+000	  0.00000E+000
  1.92000E-002	  3.13112E-001	  3.12846E-001	  0.00000E+000	  0.00000E+000
  2.08000E-002	  3.12430E-001	  3.12884E-001	  0.00000E+000	  0.00000E+000
  2.24000E-002	  3.12911E-001	  3.12837E-001	  0.00000E+000	  0.00000E+000
  2.40000E-002	  3.12225E-001	  3.11959E-001	  0.00000E+000	  0.00000E+000
  2.56000E-002	  3.12921E-001	  3.12768E-001	  0.00000E+000	  0.00000E+000
  2.88000E-002	  3.12482E-001	  3.12751E-001	  0.00000E+000	  0.00000E+000
  3.20000E-002	  3.12384E-001	  3.12604E-001	  0.00000E+000	  0.00000E+000
  3.52000E-002	  3.12612E-001	  3.12934E-001	  0.00000E+000	  0.00000E+000
  3.84000E-002	  3.12168E-001	  3.12085E-001	  0.00000E+000	  0.00000E+000
  4.16000E-002	  3.12005E-001	  3.12150E-001	  0.00000E+000	  0.00000E+000
  4.48000E-002	  3.11862E-001	  3.11964E-001	  0.00000E+000	  0.00000E+000
  4.80000E-002	  3.11890E-001	  3.11755E-001	  0.00000E+000	  0.00000E+000
  5.12000E-002	  3.11717E-001	  3.11596E-001	  0.00000E+000	  0.00000E+000
  5.76000E-002	  3.11422E-001	  3.11630E-001	  0.00000E+000	  0.00000E+000
  6.40000E-002	  3.11261E-001	  3.11119E-001	  0.00000E+000	  0.00000E+000
  7.04000E-002	  3.10763E-001	  3.10790E-001	  0.00000E+000	  0.00000E+000
  7.68000E-002	  3.10790E-001	  3.10840E-001	  0.00000E+000	  0.00000E+000
  8.32000E-002	  3.10390E-001	  3.10253E-001	  0.00000E+000	  0.00000E+000
  8.96000E-002	  3.10135E-001	  3.10012E-001	  0.00000E+000	  0.00000E+000
  9.60000E-002	  3.09884E-001	  3.09775E-001	  0.00000E+000	  0.00000E+000
  1.02400E-001	  3.09755E-001	  3.09829E-001	  0.00000E+000	  0.00000E+000
  1.15200E-001	  3.09229E-001	  3.09217E-001	  0.00000E+000	  0.00000E+000
  1.28000E-001	  3.08887E-001	  3.08859E-001	  0.00000E+000	  0.00000E+000
  1.40800E-001	  3.08636E-001	  3.08651E-001	  0.00000E+000	  0.00000E+000
  1.53600E-001	  3.07768E-001	  3.07829E-001	  0.00000E+000	  0.00000E+000
  1.66400E-001	  3.07350E-001	  3.07267E-001	  0.00000E+000	  0.00000E+000
  1.79200E-001	  3.07133E-001	  3.07292E-001	  0.00000E+000	  0.00000E+000
  1.92000E-001	  3.06543E-001	  3.06475E-001	  0.00000E+000	  0.00000E+000
  2.04800E-001	  3.06022E-001	  3.05990E-001	  0.00000E+000	  0.00000E+000
  2.30400E-001	  3.05253E-001	  3.05116E-001	  0.00000E+000	  0.00000E+000
  2.56000E-001	  3.04296E-001	  3.04333E-001	  0.00000E+000	  0.00000E+000
  2.81600E-001	  3.03463E-001	  3.03406E-001	  0.00000E+000	  0.00000E+000
  3.07200E-001	  3.02507E-001	  3.02442E-001	  0.00000E+000	  0.00000E+000
  3.32800E-001	  3.01682E-001	  3.01637E-001	  0.00000E+000	  0.00000E+000
  3.58400E-001	  3.00821E-001	  3.00756E-001	  0.00000E+000	  0.00000E+000
  3.84000E-001	  2.99932E-001	  3.00009E-001	  0.00000E+000	  0.00000E+000
  4.09600E-001	  2.99031E-001	  2.99148E-001	  0.00000E+000	  0.00000E+000
  4.60800E-001	  2.97338E-001	  2.97383E-001	  0.00000E+000	  0.00000E+000
  5.12000E-001	  2.95677E-001	  2.95748E-001	  0.00000E+000	  0.00000E+000
  5.63200E-001	  2.93984E-001	  2.94016E-001	  0.00000E+000	  0.00000E+000
  6.14400E-001	  2.92327E-001	  2.92429E-001	  0.00000E+000	  0.00000E+000
  6.65600E-001	  2.90563E-001	  2.90646E-001	  0.00000E+000	  0.00000E+000
  7.16800E-001	  2.88971E-001	  2.89046E-001	  0.00000E+000	  0.00000E+000
  7.68000E-001	  2.87358E-001	  2.87523E-001	  0.00000E+000	  0.00000E+000
  8.19200E-001	  2.85782E-001	  2.85871E-001	  0.00000E+000	  0.00000E+000
  9.21600E-001	  2.82477E-001	  2.82500E-001	  0.00000E+000	  0.00000E+000
  1.02400E+000	  2.79299E-001	  2.79285E-001	  0.00000E+000	  0.00000E+000
  1.12640E+000	  2.76144E-001	  2.76206E-001	  0.00000E+000	  0.00000E+000
  1.22880E+000	  2.72963E-001	  2.73034E-001	  0.00000E+000	  0.00000E+000
  1.33120E+000	  2.69811E-001	  2.69846E-001	  0.00000E+000	  0.00000E+000
  1.43360E+000	  2.66785E-001	  2.66881E-001	  0.00000E+000	  0.00000E+000
  1.53600E+000	  2.63748E-001	  2.63788E-001	  0.00000E+000	  0.00000E+000
  1.63840E+000	  2.60868E-001	  2.60969E-001	  0.00000E+000	  0.00000E+000
  1.84320E+000	  2.55008E-001	  2.55176E-001	  0.00000E+000	  0.00000E+000
  2.04800E+000	  2.49291E-001	  2.49488E-001	  0.00000E+000	  0.00000E+000
  2.25280E+000	  2.43675E-001	  2.43920E-001	  0.00000E+000	  0.00000E+000
  2.45760E+000	  2.38292E-001	  2.38607E-001	  0.00000E+000	  0.00000E+000
  2.66240E+000	  2.33120E-001	  2.33468E-001	  0.00000E+000	  0.00000E+000
  2.86720E+000	  2.28121E-001	  2.28536E-001	  0.00000E+000	  0.00000E+000
  3.07200E+000	  2.23322E-001	  2.23712E-001	  0.00000E+000	  0.00000E+000
  3.27680E+000	  2.18795E-001	  2.19149E-001	  0.00000E+000	  0.00000E+000
  3.68640E+000	  2.10008E-001	  2.10402E-001	  0.00000E+000	  0.00000E+000
  4.09600E+000	  2.01645E-001	  2.02066E-001	  0.00000E+000	  0.00000E+000
  4.50560E+000	  1.93857E-001	  1.94366E-001	  0.00000E+000	  0.00000E+000
  4.91520E+000	  1.86553E-001	  1.87210E-001	  0.00000E+000	  0.00000E+000
  5.32480E+000	  1.79590E-001	  1.80399E-001	  0.00000E+000	  0.00000E+000
  5.73440E+000	  1.73014E-001	  1.73979E-001	  0.00000E+000	  0.00000E+000
  6.14400E+000	  1.66760E-001	  1.67805E-001	  0.00000E+000	  0.00000E+000
  6.55360E+000	  1.60838E-001	  1.61972E-001	  0.00000E+000	  0.00000E+000
  7.37280E+000	  1.49619E-001	  1.50827E-001	  0.00000E+000	  0.00000E+000
  8.19200E+000	  1.39337E-001	  1.40501E-001	  0.00000E+000	  0.00000E+000
  9.01120E+000	  1.29951E-001	  1.31085E-001	  0.00000E+000	  0.00000E+000
  9.83040E+000	  1.20914E-001	  1.22176E-001	  0.00000E+000	  0.00000E+000
  1.06496E+001	  1.12672E-001	  1.14110E-001	  0.00000E+000	  0.00000E+000
  1.14688E+001	  1.05011E-001	  1.06472E-001	  0.00000E+000	  0.00000E+000
  1.22880E+001	  9.78022E-002	  9.92067E-002	  0.00000E+000	  0.00000E+000
  1.31072E+001	  9.13931E-002	  9.25962E-002	  0.00000E+000	  0.00000E+000
  1.47456E+001	  8.03758E-002	  8.13344E-002	  0.00000E+000	  0.00000E+000
  1.63840E+001	  7.08837E-002	  7.12571E-002	  0.00000E+000	  0.00000E+000
  1.80224E+001	  6.22159E-002	  6.17468E-002	  0.00000E+000	  0.00000E+000
  1.96608E+001	  5.52818E-002	  5.42045E-002	  0.00000E+000	  0.00000E+000
  2.12992E+001	  4.93106E-002	  4.82414E-002	  0.00000E+000	  0.00000E+000
  2.29376E+001	  4.35574E-002	  4.27483E-002	  0.00000E+000	  0.00000E+000
  2.45760E+001	  3.86385E-002	  3.82059E-002	  0.00000E+000	  0.00000E+000
  2.62144E+001	  3.39422E-002	  3.36420E-002	  0.00000E+000	  0.00000E+000
  2.94912E+001	  2.56789E-002	  2.59956E-002	  0.00000E+000	  0.00000E+000
  3.27680E+001	  1.93585E-002	  2.05960E-002	  0.00000E+000	  0.00000E+000
  3.60448E+001	  1.42319E-002	  1.59919E-002	  0.00000E+000	  0.00000E+000
  3.93216E+001	  9.77035E-003	  1.09262E-002	  0.00000E+000	  0.00000E+000
  4.25984E+001	  7.37247E-003	  7.48216E-003	  0.00000E+000	  0.00000E+000
  4.58752E+001	  4.63265E-003	  4.01108E-003	  0.00000E+000	  0.00000E+000
  4.91520E+001	  2.94907E-003	  1.94450E-003	  0.00000E+000	  0.00000E+000
  5.24288E+001	  2.21587E-003	  1.36087E-003	  0.00000E+000	  0.00000E+000
  5.89824E+001	  1.02709E-003	 -4.04956E-004	  0.00000E+000	  0.00000E+000
  6.55360E+001	  4.50737E-005	 -1.97306E-003	  0.00000E+000	  0.00000E+000
  7.20896E+001	 -2.23468E-004	 -8.70927E-004	  0.00000E+000	  0.00000E+000
  7.86432E+001	  1.30071E-003	  1.29686E-003	  0.00000E+000	  0.00000E+000
  8.51968E+001	  1.61792E-003	  2.31761E-003	  0.00000E+000	  0.00000E+000
  9.17504E+001	  2.41654E-003	  3.08999E-003	  0.00000E+000	  0.00000E+000
  9.83040E+001	  4.44410E-003	  6.04824E-003	  0.00000E+000	  0.00000E+000
  1.04858E+002	  2.19497E-003	  3.95031E-003	  0.00000E+000	  0.00000E+000
  1.17965E+002	 -3.97174E-004	 -4.45324E-004	  0.00000E+000	  0.00000E+000
  1.31072E+002	 -9.10955E-004	 -8.25971E-004	  0.00000E+000	  0.00000E+000
  1.44179E+002	 -3.27135E-003	 -3.45666E-003	  0.00000E+000	  0.00000E+000
  1.57286E+002	 -9.77031E-004	 -3.27898E-004	  0.00000E+000	  0.00000E+000
  1.70394E+002	  3.13787E-003	  2.81493E-003	  0.00000E+000	  0.00000E+000
  1.83501E+002	  7.56751E-003	  5.85290E-003	  0.00000E+000	  0.00000E+000
  1.96608E+002	  7.48570E-003	  4.82058E-003	  0.00000E+000	  0.00000E+000
  2.09715E+002	  1.21654E-002	  1.07693E-002	  0.00000E+000	  0.00000E+000
  2.35930E+002	  1.28374E-002	  1.17745E-002	  0.00000E+000	  0.00000E+000
  2.62144E+002	  4.17220E-003	  4.22903E-003	  0.00000E+000	  0.00000E+000
  2.88358E+002	  1.83934E-004	 -9.01382E-004	  0.00000E+000	  0.00000E+000
  3.14573E+002	 -2.21407E-003	 -1.22111E-003	  0.00000E+000	  0.00000E+000
  3.40787E+002	 -7.30978E-003	 -7.34941E-003	  0.00000E+000	  0.00000E+000
  3.67002E+002	 -7.68199E-003	 -5.24231E-003	  0.00000E+000	  0.00000E+000
  3.93216E+002	 -3.08500E-004	  3.69100E-003	  0.00000E+000	  0.00000E+000
  4.19430E+002	  3.71968E-003	  4.63100E-003	  0.00000E+000	  0.00000E+000
  4.71859E+002	  3.25041E-003	  2.83136E-003	  0.00000E+000	  0.00000E+000
  5.24288E+002	  8.31227E-003	  9.11456E-003	  0.00000E+000	  0.00000E+000
  5.76717E+002	 -4.58457E-004	 -8.93098E-004	  0.00000E+000	  0.00000E+000
  6.29146E+002	  2.44021E-003	  3.75886E-003	  0.00000E+000	  0.00000E+000
  6.81574E+002	 -2.89991E-003	 -2.86405E-003	  0.00000E+000	  0.00000E+000
  7.34003E+002	  2.65404E-004	 -5.01913E-004	  0.00000E+000	  0.00000E+000
  7.86432E+002	 -3.69335E-004	  1.07490E-003	  0.00000E+000	  0.00000E+000
  8.38861E+002	  2.64349E-003	  2.65151E-003	  0.00000E+000	  0.00000E+000
  9.43718E+002	  3.13353E-004	  7.16165E-004	  0.00000E+000	  0.00000E+000
  1.04858E+003	 -4.09564E-003	 -4.77695E-003	  0.00000E+000	  0.00000E+000
  1.15343E+003	  2.08410E-003	  2.74426E-003	  0.00000E+000	  0.00000E+000
  1.25829E+003	 -1.41459E-003	 -1.61813E-003	  0.00000E+000	  0.00000E+000
  1.36315E+003	  6.86043E-003	  5.93883E-003	  0.00000E+000	  0.00000E+000
  1.46801E+003	 -2.18019E-004	 -1.16918E-003	  0.00000E+000	  0.00000E+000
  1.57286E+003	  6.95429E-003	  6.71262E-003	  0.00000E+000	  0.00000E+000
  1.67772E+003	  1.93288E-003	  2.05756E-003	  0.00000E+000	  0.00000E+000
  1.88744E+003	 -1.17155E-003	 -1.60868E-003	  0.00000E+000	  0.00000E+000
  2.09715E+003	  8.34122E-006	 -6.52913E-004	  0.00000E+000	  0.00000E+000
  2.30687E+003	 -4.37948E-003	 -4.36592E-003	  0.00000E+000	  0.00000E+000
  2.51658E+003	 -1.62917E-003	 -2.21400E-003	  0.00000E+000	  0.00000E+000
  2.72630E+003	  2.59039E-003	  1.69020E-003	  0.00000E+000	  0.00000E+000
  2.93601E+003	 -1.66905E-003	 -1.99641E-003	  0.00000E+000	  0.00000E+000
  3.14573E+003	 -1.52762E-003	 -2.39643E-003	  0.00000E+000	  0.00000E+000
  3.35544E+003	 -3.60151E-003	 -5.85373E-003	  0.00000E+000	  0.00000E+000
  3.77487E+003	  6.39772E-005	  5.03959E-004	  0.00000E+000	  0.00000E+000
  4.19430E+003	  4.03748E-004	  1.86931E-004	  0.00000E+000	  0.00000E+000
  4.61373E+003	 -2.13521E-003	 -3.26779E-003	  0.00000E+000	  0.00000E+000
  5.03317E+003	 -9.60075E-004	 -1.60808E-003	  0.00000E+000	  0.00000E+000
  5.45260E+003	  1.18417E-003	  1.62481E-003	  0.00000E+000	  0.00000E+000
  5.87203E+003	  2.12342E-004	  8.12875E-004	  0.00000E+000	  0.00000E+000

"Count Rate"
       0.12891	     541.70911	     354.64966	       0.00000	       0.00000
       0.25781	     375.80206	     303.65741	       0.00000	       0.00000
       0.38672	     443.33923	     361.70822	       0.00000	       0.00000
       0.51563	     405.26956	     307.26428	       0.00000	       0.00000
       0.64453	     486.31107	     411.35080	       0.00000	       0.00000
       0.77344	     446.10059	     368.04541	       0.00000	       0.00000
       0.90234	     466.76431	     401.25162	       0.00000	       0.00000
       1.03125	     453.76416	     369.43384	       0.00000	       0.00000
       1.16016	     436.80811	     382.06168	       0.00000	       0.00000
       1.28906	     656.42224	     500.78497	       0.00000	       0.00000
       1.41797	     391.08264	     303.71948	       0.00000	       0.00000
       1.54688	     670.09717	     586.37189	       0.00000	       0.00000
       1.67578	     609.68060	     510.63593	       0.00000	       0.00000
       1.80469	     340.45499	     301.01242	       0.00000	       0.00000
       1.93359	     344.72113	     293.51172	       0.00000	       0.00000
       2.06250	     324.63141	     328.14517	       0.00000	       0.00000
       2.19141	     408.46530	     312.67841	       0.00000	       0.00000
       2.32031	     452.65497	     370.64386	       0.00000	       0.00000
       2.44922	     501.53738	     349.92584	       0.00000	       0.00000
       2.57813	     452.85663	     387.02591	       0.00000	       0.00000
       2.70703	     400.98788	     304.43307	       0.00000	       0.00000
       2.83594	     482.64993	     391.53253	       0.00000	       0.00000
       2.96484	     468.55609	     351.68661	       0.00000	       0.00000
       3.09375	     360.54471	     277.55627	       0.00000	       0.00000
       3.22266	     403.15976	     339.23718	       0.00000	       0.00000
       3.35156	     270.14868	     229.24786	       0.00000	       0.00000
       3.48047	     379.79672	     265.81271	       0.00000	       0.00000
       3.60938	     392.18411	     290.28494	       0.00000	       0.00000
       3.73828	     477.50726	     462.18011	       0.00000	       0.00000
       3.86719	     325.90350	     265.12238	       0.00000	       0.00000
       3.99609	     345.05469	     289.54807	       0.00000	       0.00000
       4.12500	     433.02286	     314.43918	       0.00000	       0.00000
       4.25391	     472.99289	     363.92661	       0.00000	       0.00000
       4.38281	     659.62573	     480.00491	       0.00000	       0.00000
       4.51172	     359.97073	     300.96588	       0.00000	       0.00000
       4.64063	     617.42950	     502.46042	       0.00000	       0.00000
       4.76953	     458.71289	     449.35837	       0.00000	       0.00000
       4.89844	     310.91766	     260.62350	       0.00000	       0.00000
       5.02734	     517.37646	     472.13968	       0.00000	       0.00000
       5.15625	     434.63626	     363.16647	       0.00000	       0.00000
       5.28516	     418.61877	     339.33026	       0.00000	       0.00000
       5.41406	     568.12823	     452.69376	       0.00000	       0.00000
       5.54297	     337.55399	     258.10260	       0.00000	       0.00000
       5.67188	     579.92609	     412.94089	       0.00000	       0.00000
       5.80078	     619.60913	     513.80066	       0.00000	       0.00000
       5.92969	     474.04004	     442.66440	       0.00000	       0.00000
       6.05859	     741.97809	     605.21277	       0.00000	       0.00000
       6.18750	     717.21112	     601.45081	       0.00000	       0.00000
       6.31641	     797.01154	     608.29993	       0.00000	       0.00000
       6.44531	     481.66483	     407.86804	       0.00000	       0.00000
       6.57422	     627.48212	     553.90253	       0.00000	       0.00000
       6.70313	     324.92618	     315.93622	       0.00000	       0.00000
       6.83203	     600.16321	     555.88049	       0.00000	       0.00000
       6.96094	     437.28903	     358.84601	       0.00000	       0.00000
       7.08984	     438.80933	     336.75507	       0.00000	       0.00000
       7.21875	     459.30240	     429.24539	       0.00000	       0.00000
       7.34766	     276.19113	     232.24193	       0.00000	       0.00000
       7.47656	     347.17224	     311.69333	       0.00000	       0.00000
       7.60547	     576.37354	     390.08981	       0.00000	       0.00000
       7.73438	     424.93268	     319.12418	       0.00000	       0.00000
       7.86328	     402.22119	     342.80524	       0.00000	       0.00000
       7.99219	     407.20874	     364.71002	       0.00000	       0.00000
       8.12109	     495.52597	     410.83109	       0.00000	       0.00000
       8.25000	     412.45224	     315.65695	       0.00000	       0.00000
       8.37891	     645.67926	     452.66272	       0.00000	       0.00000
       8.50781	     380.27765	     291.58032	       0.00000	       0.00000
       8.63672	     470.67368	     403.85010	       0.00000	       0.00000
       8.76563	     392.50211	     322.95596	       0.00000	       0.00000
       8.89453	     616.10315	     446.35657	       0.00000	       0.00000
       9.02344	     391.85831	     310.28937	       0.00000	       0.00000
       9.15234	     425.26620	     319.55856	       0.00000	       0.00000
       9.28125	     384.38867	     290.24619	       0.00000	       0.00000
       9.41016	     415.92722	     280.48831	       0.00000	       0.00000
       9.53906	     463.47549	     407.12341	       0.00000	       0.00000
       9.66797	     476.75488	     367.17664	       0.00000	       0.00000
       9.79688	     546.56476	     418.35504	       0.00000	       0.00000
       9.92578	     376.65527	     308.07870	       0.00000	       0.00000
      10.05469	     526.90936	     427.98105	       0.00000	       0.00000
      10.18359	     500.65314	     356.53452	       0.00000	       0.00000
      10.31250	     506.54044	     440.54681	       0.00000	       0.00000
      10.44141	     383.07779	     325.57773	       0.00000	       0.00000
      10.57031	     609.12988	     441.94302	       0.00000	       0.00000
      10.69922	     423.63733	     311.77863	       0.00000	       0.00000
      10.82813	     371.28769	     274.99658	       0.00000	       0.00000
      10.95703	     301.15204	     257.20282	       0.00000	       0.00000
      11.08594	     443.79688	     316.71188	       0.00000	       0.00000
      11.21484	     540.80157	     516.87225	       0.00000	       0.00000
      11.34375	     418.81268	     389.54684	       0.00000	       0.00000
      11.47266	     435.56705	     336.75507	       0.00000	       0.00000
      11.60156	     631.00366	     415.84964	       0.00000	       0.00000
      11.73047	     471.51913	     403.36920	       0.00000	       0.00000
      11.85938	     392.05225	     339.48541	       0.00000	       0.00000
      11.98828	     468.41647	     417.93619	       0.00000	       0.00000
      12.11719	     394.81360	     316.94458	       0.00000	       0.00000
      12.24609	     345.06244	     284.62259	       0.00000	       0.00000
      12.37500	     546.53369	     426.39868	       0.00000	       0.00000
      12.50391	     563.93188	     444.80524	       0.00000	       0.00000
      12.63281	     589.24182	     436.15656	       0.00000	       0.00000
      12.76172	     354.44800	     293.96161	       0.00000	       0.00000
      12.89063	     489.84811	     437.60706	       0.00000	       0.00000
      13.01953	     532.79669	     480.13678	       0.00000	       0.00000
      13.14844	     594.86542	     403.85785	       0.00000	       0.00000
      13.27734	     390.32251	     358.30304	       0.00000	       0.00000
      13.40625	     623.20050	     491.67093	       0.00000	       0.00000
      13.53516	     422.28766	     348.32797	       0.00000	       0.00000
      13.66406	     487.57541	     444.90607	       0.00000	       0.00000
      13.79297	     468.44751	     360.64554	       0.00000	       0.00000
      13.92188	     548.87622	     516.91107	       0.00000	       0.00000
      14.05078	     388.82547	     323.10336	       0.00000	       0.00000
      14.17969	     782.56866	     654.04089	       0.00000	       0.00000
      14.30859	     401.53085	     353.03629	       0.00000	       0.00000
      14.43750	     549.90009	     419.88312	       0.00000	       0.00000
      14.56641	     446.79092	     374.09558	       0.00000	       0.00000
      14.69531	     434.78363	     381.05331	       0.00000	       0.00000
      14.82422	     449.02484	     332.19415	       0.00000	       0.00000
      14.95313	     338.39172	     251.64131	       0.00000	       0.00000
      15.08203	     526.07941	     439.42987	       0.00000	       0.00000
      15.21094	     479.31458	     368.73575	       0.00000	       0.00000
      15.33984	     532.76569	     476.77814	       0.00000	       0.00000
      15.46875	     401.98849	     376.72510	       0.00000	       0.00000
      15.59766	     671.76489	     640.52106	       0.00000	       0.00000
      15.72656	     468.21481	     388.54623	       0.00000	       0.00000
      15.85547	     417.02866	     303.33942	       0.00000	       0.00000
      15.98438	     583.92078	     460.79169	       0.00000	       0.00000
      16.11328	     803.49609	     584.09918	       0.00000	       0.00000
      16.24219	     464.76309	     400.45270	       0.00000	       0.00000
      16.37109	     689.14752	     541.74786	       0.00000	       0.00000
      16.50000	     428.14395	     308.82336	       0.00000	       0.00000
      16.62891	     520.01373	     368.25482	       0.00000	       0.00000
      16.75781	     444.58804	     324.96494	       0.00000	       0.00000
      16.88672	     756.65369	     664.55896	       0.00000	       0.00000
      17.01563	     475.80856	     372.76920	       0.00000	       0.00000
      17.14453	     404.37756	     304.75110	       0.00000	       0.00000
      17.27344	     348.02548	     293.48068	       0.00000	       0.00000
      17.40234	     608.42407	     472.72141	       0.00000	       0.00000
      17.53125	     495.68887	     360.30426	       0.00000	       0.00000
      17.66016	     454.08994	     359.27261	       0.00000	       0.00000
      17.78906	     528.85632	     443.98303	       0.00000	       0.00000
      17.91797	     320.69104	     241.76709	       0.00000	       0.00000
      18.04688	     692.59149	     611.17767	       0.00000	       0.00000
      18.17578	     553.15015	     448.72235	       0.00000	       0.00000
      18.30469	     468.10620	     344.12387	       0.00000	       0.00000
      18.43359	     303.21530	     215.60391	       0.00000	       0.00000
      18.56250	     440.64767	     336.38275	       0.00000	       0.00000
      18.69141	     431.95245	     346.08630	       0.00000	       0.00000
      18.82031	     455.74210	     335.32007	       0.00000	       0.00000
      18.94922	     674.84424	     443.53314	       0.00000	       0.00000
      19.07813	     735.35388	     556.51654	       0.00000	       0.00000
      19.20703	     511.46591	     468.83533	       0.00000	       0.00000
      19.33594	     374.59976	     301.57864	       0.00000	       0.00000
      19.46484	     411.98682	     331.18579	       0.00000	       0.00000
      19.59375	     465.39139	     417.09845	       0.00000	       0.00000
      19.72266	     427.46912	     353.48615	       0.00000	       0.00000
      19.85156	     316.96783	     256.52026	       0.00000	       0.00000
      19.98047	     305.61984	     273.44525	       0.00000	       0.00000
      20.10938	     369.97681	     303.44025	       0.00000	       0.00000
      20.23828	     435.01633	     373.66122	       0.00000	       0.00000
      20.36719	     527.25842	     466.90393	       0.00000	       0.00000
      20.49609	     578.87897	     380.86716	       0.00000	       0.00000
      20.62500	     656.42224	     469.99109	       0.00000	       0.00000
      20.75391	     447.37268	     378.22214	       0.00000	       0.00000
      20.88281	     503.15851	     386.80099	       0.00000	       0.00000
      21.01172	     449.53677	     384.72995	       0.00000	       0.00000
      21.14063	     499.30347	     385.94775	       0.00000	       0.00000
      21.26953	     538.67621	     370.12418	       0.00000	       0.00000
      21.39844	     350.04996	     281.82245	       0.00000	       0.00000
      21.52734	     394.75931	     361.01788	       0.00000	       0.00000
      21.65625	     632.73340	     492.33798	       0.00000	       0.00000
      21.78516	     661.51831	     481.64157	       0.00000	       0.00000
      21.91406	     275.45422	     225.23767	       0.00000	       0.00000
      22.04297	     554.15076	     410.10971	       0.00000	       0.00000
      22.17188	     539.02527	     441.90424	       0.00000	       0.00000
      22.30078	     597.66559	     466.59366	       0.00000	       0.00000
      22.42969	     413.59247	     292.30170	       0.00000	       0.00000
      22.55859	     400.29755	     287.43826	       0.00000	       0.00000
      22.68750	     443.76584	     304.12283	       0.00000	       0.00000
      22.81641	     440.44598	     329.20007	       0.00000	       0.00000
      22.94531	     454.79581	     371.43506	       0.00000	       0.00000
      23.07422	     552.07971	     452.83337	       0.00000	       0.00000
      23.20313	     538.49780	     466.17480	       0.00000	       0.00000
      23.33203	     431.61893	     332.07004	       0.00000	       0.00000
      23.46094	     465.21298	     383.40356	       0.00000	       0.00000
      23.58984	     469.20764	     391.16797	       0.00000	       0.00000
      23.71875	     707.85657	     496.92993	       0.00000	       0.00000
      23.84766	     667.96411	     467.32278	       0.00000	       0.00000
      23.97656	     543.19836	     417.92844	       0.00000	       0.00000
      24.10547	     412.46774	     318.68982	       0.00000	       0.00000
      24.23438	     465.91107	     445.45679	       0.00000	       0.00000
      24.36328	     460.52020	     391.25330	       0.00000	       0.00000
      24.49219	     457.10727	     441.50089	       0.00000	       0.00000
      24.62109	     580.56989	     506.39304	       0.00000	       0.00000
      24.75000	     392.16083	     301.14426	       0.00000	       0.00000
      24.87891	     610.47955	     447.38043	       0.00000	       0.00000
      25.00781	     413.12704	     313.69452	       0.00000	       0.00000
      25.13672	     334.45908	     259.94870	       0.00000	       0.00000
      25.26563	     302.13712	     242.82976	       0.00000	       0.00000
      25.39453	     359.56738	     317.31689	       0.00000	       0.00000
      25.52344	     431.02167	     303.16101	       0.00000	       0.00000
      25.65234	     435.75320	     354.99872	       0.00000	       0.00000
      25.78125	     563.59058	     402.99686	       0.00000	       0.00000
      25.91016	     342.93710	     285.76282	       0.00000	       0.00000
      26.03906	     529.49237	     417.13724	       0.00000	       0.00000
      26.16797	     643.34448	     498.27182	       0.00000	       0.00000
      26.29688	     348.61499	     267.21667	       0.00000	       0.00000
      26.42578	     470.58835	     377.76450	       0.00000	       0.00000
      26.55469	     360.37405	     303.09894	       0.00000	       0.00000
      26.68359	     577.88611	     429.37726	       0.00000	       0.00000
      26.81250	     303.23856	     244.51295	       0.00000	       0.00000
      26.94141	     325.79492	     240.15372	       0.00000	       0.00000
      27.07031	     431.03717	     368.56509	       0.00000	       0.00000
      27.19922	     392.33148	     329.01392	       0.00000	       0.00000
      27.32813	     512.05542	     424.06393	       0.00000	       0.00000
      27.45703	     456.76599	     330.73590	       0.00000	       0.00000
      27.58594	     386.03308	     282.48953	       0.00000	       0.00000
      27.71484	     440.77951	     338.84161	       0.00000	       0.00000
      27.84375	     335.59930	     300.59354	       0.00000	       0.00000
      27.97266	     399.87094	     324.72449	       0.00000	       0.00000
      28.10156	     397.46637	     354.48676	       0.00000	       0.00000
      28.23047	     423.06332	     335.42093	       0.00000	       0.00000
      28.35938	     483.84445	     389.31415	       0.00000	       0.00000
      28.48828	     484.30209	     328.05209	       0.00000	       0.00000
      28.61719	     408.24814	     384.59033	       0.00000	       0.00000
      28.74609	     553.85602	     417.64142	       0.00000	       0.00000
      28.87500	     509.10013	     412.55307	       0.00000	       0.00000
      29.00391	     328.05984	     285.27417	       0.00000	       0.00000
      29.13281	     467.35382	     355.19263	       0.00000	       0.00000
      29.26172	     337.98062	     272.03354	       0.00000	       0.00000
      29.39063	     391.45499	     337.76343	       0.00000	       0.00000
      29.51953	     541.32898	     414.74820	       0.00000	       0.00000
      29.64844	     419.51077	     373.40524	       0.00000	       0.00000
      29.77734	     473.37299	     388.76343	       0.00000	       0.00000
      29.90625	     577.89386	     530.42316	       0.00000	       0.00000
      30.03516	     617.42950	     513.50592	       0.00000	       0.00000
      30.16406	     445.07672	     331.20905	       0.00000	       0.00000
      30.29297	     270.75369	     223.45364	       0.00000	       0.00000
      30.42188	     544.88153	     462.83945	       0.00000	       0.00000
      30.55078	     627.14862	     464.50711	       0.00000	       0.00000
      30.67969	     487.64520	     385.45132	       0.00000	       0.00000
      30.80859	     544.89709	     392.91321	       0.00000	       0.00000
      30.93750	     402.15915	     309.62228	       0.00000	       0.00000
      31.06641	     430.61057	     360.01727	       0.00000	       0.00000
      31.19531	     314.99765	     255.08527	       0.00000	       0.00000
      31.32422	     585.44110	     443.12979	       0.00000	       0.00000
      31.45313	     444.08386	     362.49164	       0.00000	       0.00000
      31.58203	     504.42285	     470.93738	       0.00000	       0.00000
      31.71094	     478.56216	     373.52161	       0.00000	       0.00000
      31.83984	     329.48709	     294.45804	       0.00000	       0.00000
      31.96875	     336.24313	     271.71555	       0.00000	       0.00000
      32.09766	     438.80933	     347.19553	       0.00000	       0.00000
      32.22656	     457.62698	     368.79779	       0.00000	       0.00000
      32.35547	     726.04590	     577.19574	       0.00000	       0.00000
      32.48438	     544.55579	     441.01999	       0.00000	       0.00000
      32.61328	     470.82880	     358.43491	       0.00000	       0.00000
      32.74219	     419.92188	     348.21939	       0.00000	       0.00000

Monitor Diode	   2995.39
