ALV-7004 or ALV-7004/FAST Data
Date :	"04.06.2015"
Time :	"16:24:29"
Samplename : 	""
SampMemo(0) : 	""
SampMemo(1) : 	""
SampMemo(2) : 	""
SampMemo(3) : 	""
SampMemo(4) : 	""
SampMemo(5) : 	""
SampMemo(6) : 	""
SampMemo(7) : 	""
SampMemo(8) : 	""
SampMemo(9) : 	""
Temperature [K] :	     297.94345
Viscosity [cp]  :	       0.89000
Refractive Index:	       1.33200
Wavelength [nm] :	     632.80000
Angle [°]       :	     103.30000
Duration [s]    :	        24
Runs            :	         1
Mode            :	"C-CH0/1+1/0 "
MeanCR0 [kHz]   :	     650.84973
MeanCR1 [kHz]   :	     568.12585
MeanCR2 [kHz]   :	       0.00000
MeanCR3 [kHz]   :	       0.00000

"Correlation"
  2.50000E-005	  2.86050E-001	  2.90233E-001	  0.00000E+000	  0.00000E+000
  5.00000E-005	  2.84105E-001	  2.81055E-001	  0.00000E+000	  0.00000E+000
  7.50000E-005	  2.77962E-001	  2.76661E-001	  0.00000E+000	  0.00000E+000
  1.00000E-004	  2.80687E-001	  2.82321E-001	  0.00000E+000	  0.00000E+000
  1.25000E-004	  2.80284E-001	  2.78976E-001	  0.00000E+000	  0.00000E+000
  1.50000E-004	  2.83328E-001	  2.81752E-001	  0.00000E+000	  0.00000E+000
  1.75000E-004	  2.82977E-001	  2.86299E-001	  0.00000E+000	  0.00000E+000
  2.00000E-004	  2.80767E-001	  2.83351E-001	  0.00000E+000	  0.00000E+000
  2.25000E-004	  2.82542E-001	  2.81387E-001	  0.00000E+000	  0.00000E+000
  2.50000E-004	  2.80642E-001	  2.80927E-001	  0.00000E+000	  0.00000E+000
  2.75000E-004	  2.78560E-001	  2.79916E-001	  0.00000E+000	  0.00000E+000
  3.00000E-004	  2.78647E-001	  2.78675E-001	  0.00000E+000	  0.00000E+000
  3.25000E-004	  2.83591E-001	  2.82845E-001	  0.00000E+000	  0.00000E+000
  3.50000E-004	  2.82679E-001	  2.85442E-001	  0.00000E+000	  0.00000E+000
  3.75000E-004	  2.80716E-001	  2.82519E-001	  0.00000E+000	  0.00000E+000
  4.00000E-004	  2.81138E-001	  2.81995E-001	  0.00000E+000	  0.00000E+000
  4.50000E-004	  2.80161E-001	  2.79264E-001	  0.00000E+000	  0.00000E+000
  5.00000E-004	  2.79262E-001	  2.79929E-001	  0.00000E+000	  0.00000E+000
  5.50000E-004	  2.80810E-001	  2.81688E-001	  0.00000E+000	  0.00000E+000
  6.00000E-004	  2.79365E-001	  2.81918E-001	  0.00000E+000	  0.00000E+000
  6.50000E-004	  2.82384E-001	  2.82900E-001	  0.00000E+000	  0.00000E+000
  7.00000E-004	  2.80196E-001	  2.79232E-001	  0.00000E+000	  0.00000E+000
  7.50000E-004	  2.80705E-001	  2.79571E-001	  0.00000E+000	  0.00000E+000
  8.00000E-004	  2.80834E-001	  2.81247E-001	  0.00000E+000	  0.00000E+000
  9.00000E-004	  2.79555E-001	  2.80885E-001	  0.00000E+000	  0.00000E+000
  1.00000E-003	  2.82583E-001	  2.83902E-001	  0.00000E+000	  0.00000E+000
  1.10000E-003	  2.79513E-001	  2.79518E-001	  0.00000E+000	  0.00000E+000
  1.20000E-003	  2.81470E-001	  2.80431E-001	  0.00000E+000	  0.00000E+000
  1.30000E-003	  2.81569E-001	  2.80927E-001	  0.00000E+000	  0.00000E+000
  1.40000E-003	  2.80103E-001	  2.77996E-001	  0.00000E+000	  0.00000E+000
  1.50000E-003	  2.80653E-001	  2.80976E-001	  0.00000E+000	  0.00000E+000
  1.60000E-003	  2.80685E-001	  2.80647E-001	  0.00000E+000	  0.00000E+000
  1.80000E-003	  2.80959E-001	  2.80627E-001	  0.00000E+000	  0.00000E+000
  2.00000E-003	  2.79682E-001	  2.79107E-001	  0.00000E+000	  0.00000E+000
  2.20000E-003	  2.81724E-001	  2.81988E-001	  0.00000E+000	  0.00000E+000
  2.40000E-003	  2.78335E-001	  2.77935E-001	  0.00000E+000	  0.00000E+000
  2.60000E-003	  2.80219E-001	  2.80651E-001	  0.00000E+000	  0.00000E+000
  2.80000E-003	  2.80077E-001	  2.79789E-001	  0.00000E+000	  0.00000E+000
  3.00000E-003	  2.81504E-001	  2.80801E-001	  0.00000E+000	  0.00000E+000
  3.20000E-003	  2.81059E-001	  2.81117E-001	  0.00000E+000	  0.00000E+000
  3.60000E-003	  2.79956E-001	  2.80081E-001	  0.00000E+000	  0.00000E+000
  4.00000E-003	  2.80028E-001	  2.79665E-001	  0.00000E+000	  0.00000E+000
  4.40000E-003	  2.79353E-001	  2.79191E-001	  0.00000E+000	  0.00000E+000
  4.80000E-003	  2.79973E-001	  2.80179E-001	  0.00000E+000	  0.00000E+000
  5.20000E-003	  2.79873E-001	  2.78359E-001	  0.00000E+000	  0.00000E+000
  5.60000E-003	  2.78883E-001	  2.79433E-001	  0.00000E+000	  0.00000E+000
  6.00000E-003	  2.79652E-001	  2.80096E-001	  0.00000E+000	  0.00000E+000
  6.40000E-003	  2.78968E-001	  2.79128E-001	  0.00000E+000	  0.00000E+000
  7.20000E-003	  2.78804E-001	  2.78787E-001	  0.00000E+000	  0.00000E+000
  8.00000E-003	  2.79358E-001	  2.79682E-001	  0.00000E+000	  0.00000E+000
  8.80000E-003	  2.78426E-001	  2.78240E-001	  0.00000E+000	  0.00000E+000
  9.60000E-003	  2.78617E-001	  2.78154E-001	  0.00000E+000	  0.00000E+000
  1.04000E-002	  2.78594E-001	  2.78582E-001	  0.00000E+000	  0.00000E+000
  1.12000E-002	  2.78212E-001	  2.78987E-001	  0.00000E+000	  0.00000E+000
  1.20000E-002	  2.78105E-001	  2.77356E-001	  0.00000E+000	  0.00000E+000
  1.28000E-002	  2.77676E-001	  2.77405E-001	  0.00000E+000	  0.00000E+000
  1.44000E-002	  2.77529E-001	  2.77413E-001	  0.00000E+000	  0.00000E+000
  1.60000E-002	  2.77322E-001	  2.77463E-001	  0.00000E+000	  0.00000E+000
  1.76000E-002	  2.76565E-001	  2.76582E-001	  0.00000E+000	  0.00000E+000
  1.92000E-002	  2.76399E-001	  2.76531E-001	  0.00000E+000	  0.00000E+000
  2.08000E-002	  2.76137E-001	  2.76217E-001	  0.00000E+000	  0.00000E+000
  2.24000E-002	  2.76160E-001	  2.76317E-001	  0.00000E+000	  0.00000E+000
  2.40000E-002	  2.75641E-001	  2.75726E-001	  0.00000E+000	  0.00000E+000
  2.56000E-002	  2.75452E-001	  2.75383E-001	  0.00000E+000	  0.00000E+000
  2.88000E-002	  2.74838E-001	  2.74786E-001	  0.00000E+000	  0.00000E+000
  3.20000E-002	  2.74378E-001	  2.74348E-001	  0.00000E+000	  0.00000E+000
  3.52000E-002	  2.73620E-001	  2.73273E-001	  0.00000E+000	  0.00000E+000
  3.84000E-002	  2.72961E-001	  2.72939E-001	  0.00000E+000	  0.00000E+000
  4.16000E-002	  2.72036E-001	  2.71989E-001	  0.00000E+000	  0.00000E+000
  4.48000E-002	  2.71667E-001	  2.71568E-001	  0.00000E+000	  0.00000E+000
  4.80000E-002	  2.71024E-001	  2.71032E-001	  0.00000E+000	  0.00000E+000
  5.12000E-002	  2.70341E-001	  2.70348E-001	  0.00000E+000	  0.00000E+000
  5.76000E-002	  2.69592E-001	  2.69593E-001	  0.00000E+000	  0.00000E+000
  6.40000E-002	  2.68198E-001	  2.68219E-001	  0.00000E+000	  0.00000E+000
  7.04000E-002	  2.67234E-001	  2.67336E-001	  0.00000E+000	  0.00000E+000
  7.68000E-002	  2.66052E-001	  2.66098E-001	  0.00000E+000	  0.00000E+000
  8.32000E-002	  2.64878E-001	  2.64831E-001	  0.00000E+000	  0.00000E+000
  8.96000E-002	  2.63881E-001	  2.63819E-001	  0.00000E+000	  0.00000E+000
  9.60000E-002	  2.62612E-001	  2.62717E-001	  0.00000E+000	  0.00000E+000
  1.02400E-001	  2.61577E-001	  2.61470E-001	  0.00000E+000	  0.00000E+000
  1.15200E-001	  2.59469E-001	  2.59405E-001	  0.00000E+000	  0.00000E+000
  1.28000E-001	  2.57294E-001	  2.57266E-001	  0.00000E+000	  0.00000E+000
  1.40800E-001	  2.55316E-001	  2.55157E-001	  0.00000E+000	  0.00000E+000
  1.53600E-001	  2.53174E-001	  2.53426E-001	  0.00000E+000	  0.00000E+000
  1.66400E-001	  2.51118E-001	  2.51133E-001	  0.00000E+000	  0.00000E+000
  1.79200E-001	  2.49172E-001	  2.49202E-001	  0.00000E+000	  0.00000E+000
  1.92000E-001	  2.47218E-001	  2.47219E-001	  0.00000E+000	  0.00000E+000
  2.04800E-001	  2.45212E-001	  2.45237E-001	  0.00000E+000	  0.00000E+000
  2.30400E-001	  2.41390E-001	  2.41327E-001	  0.00000E+000	  0.00000E+000
  2.56000E-001	  2.37758E-001	  2.37727E-001	  0.00000E+000	  0.00000E+000
  2.81600E-001	  2.34069E-001	  2.34217E-001	  0.00000E+000	  0.00000E+000
  3.07200E-001	  2.30389E-001	  2.30338E-001	  0.00000E+000	  0.00000E+000
  3.32800E-001	  2.27018E-001	  2.27123E-001	  0.00000E+000	  0.00000E+000
  3.58400E-001	  2.23662E-001	  2.23719E-001	  0.00000E+000	  0.00000E+000
  3.84000E-001	  2.20089E-001	  2.20276E-001	  0.00000E+000	  0.00000E+000
  4.09600E-001	  2.16933E-001	  2.17012E-001	  0.00000E+000	  0.00000E+000
  4.60800E-001	  2.10661E-001	  2.10783E-001	  0.00000E+000	  0.00000E+000
  5.12000E-001	  2.04559E-001	  2.04651E-001	  0.00000E+000	  0.00000E+000
  5.63200E-001	  1.98716E-001	  1.98729E-001	  0.00000E+000	  0.00000E+000
  6.14400E-001	  1.93020E-001	  1.93075E-001	  0.00000E+000	  0.00000E+000
  6.65600E-001	  1.87535E-001	  1.87655E-001	  0.00000E+000	  0.00000E+000
  7.16800E-001	  1.82293E-001	  1.82315E-001	  0.00000E+000	  0.00000E+000
  7.68000E-001	  1.77137E-001	  1.77253E-001	  0.00000E+000	  0.00000E+000
  8.19200E-001	  1.72346E-001	  1.72449E-001	  0.00000E+000	  0.00000E+000
  9.21600E-001	  1.62926E-001	  1.62964E-001	  0.00000E+000	  0.00000E+000
  1.02400E+000	  1.54293E-001	  1.54267E-001	  0.00000E+000	  0.00000E+000
  1.12640E+000	  1.46167E-001	  1.46133E-001	  0.00000E+000	  0.00000E+000
  1.22880E+000	  1.38534E-001	  1.38450E-001	  0.00000E+000	  0.00000E+000
  1.33120E+000	  1.31433E-001	  1.31313E-001	  0.00000E+000	  0.00000E+000
  1.43360E+000	  1.24815E-001	  1.24625E-001	  0.00000E+000	  0.00000E+000
  1.53600E+000	  1.18445E-001	  1.18238E-001	  0.00000E+000	  0.00000E+000
  1.63840E+000	  1.12562E-001	  1.12394E-001	  0.00000E+000	  0.00000E+000
  1.84320E+000	  1.01667E-001	  1.01559E-001	  0.00000E+000	  0.00000E+000
  2.04800E+000	  9.19671E-002	  9.19107E-002	  0.00000E+000	  0.00000E+000
  2.25280E+000	  8.32494E-002	  8.33002E-002	  0.00000E+000	  0.00000E+000
  2.45760E+000	  7.52425E-002	  7.53949E-002	  0.00000E+000	  0.00000E+000
  2.66240E+000	  6.82706E-002	  6.85093E-002	  0.00000E+000	  0.00000E+000
  2.86720E+000	  6.22012E-002	  6.24961E-002	  0.00000E+000	  0.00000E+000
  3.07200E+000	  5.69461E-002	  5.72540E-002	  0.00000E+000	  0.00000E+000
  3.27680E+000	  5.25432E-002	  5.28849E-002	  0.00000E+000	  0.00000E+000
  3.68640E+000	  4.47377E-002	  4.50515E-002	  0.00000E+000	  0.00000E+000
  4.09600E+000	  3.88459E-002	  3.92620E-002	  0.00000E+000	  0.00000E+000
  4.50560E+000	  3.33955E-002	  3.37766E-002	  0.00000E+000	  0.00000E+000
  4.91520E+000	  2.83113E-002	  2.89119E-002	  0.00000E+000	  0.00000E+000
  5.32480E+000	  2.37836E-002	  2.45677E-002	  0.00000E+000	  0.00000E+000
  5.73440E+000	  1.99252E-002	  2.08561E-002	  0.00000E+000	  0.00000E+000
  6.14400E+000	  1.69877E-002	  1.79557E-002	  0.00000E+000	  0.00000E+000
  6.55360E+000	  1.47918E-002	  1.54567E-002	  0.00000E+000	  0.00000E+000
  7.37280E+000	  1.03311E-002	  1.03840E-002	  0.00000E+000	  0.00000E+000
  8.19200E+000	  5.56095E-003	  5.15780E-003	  0.00000E+000	  0.00000E+000
  9.01120E+000	  2.35571E-003	  1.53415E-003	  0.00000E+000	  0.00000E+000
  9.83040E+000	  7.83236E-004	 -5.14572E-004	  0.00000E+000	  0.00000E+000
  1.06496E+001	 -2.49540E-004	 -1.28991E-003	  0.00000E+000	  0.00000E+000
  1.14688E+001	 -6.28599E-004	 -1.40409E-003	  0.00000E+000	  0.00000E+000
  1.22880E+001	  6.39423E-004	 -2.44038E-004	  0.00000E+000	  0.00000E+000
  1.31072E+001	  1.73037E-003	  1.99126E-004	  0.00000E+000	  0.00000E+000
  1.47456E+001	  2.12665E-003	  5.19021E-004	  0.00000E+000	  0.00000E+000
  1.63840E+001	  1.27908E-003	  1.33876E-005	  0.00000E+000	  0.00000E+000
  1.80224E+001	  2.27792E-003	  2.16650E-003	  0.00000E+000	  0.00000E+000
  1.96608E+001	  4.45310E-003	  5.16763E-003	  0.00000E+000	  0.00000E+000
  2.12992E+001	  4.58568E-003	  5.40607E-003	  0.00000E+000	  0.00000E+000
  2.29376E+001	  3.71428E-003	  3.85358E-003	  0.00000E+000	  0.00000E+000
  2.45760E+001	  3.56282E-003	  3.55794E-003	  0.00000E+000	  0.00000E+000
  2.62144E+001	  3.93467E-003	  3.91746E-003	  0.00000E+000	  0.00000E+000
  2.94912E+001	  1.79270E-003	  3.46192E-004	  0.00000E+000	  0.00000E+000
  3.27680E+001	 -6.43856E-004	 -1.16961E-003	  0.00000E+000	  0.00000E+000
  3.60448E+001	 -1.22931E-003	 -7.27372E-004	  0.00000E+000	  0.00000E+000
  3.93216E+001	  2.88424E-004	 -3.54558E-005	  0.00000E+000	  0.00000E+000
  4.25984E+001	  1.22698E-003	  9.75213E-004	  0.00000E+000	  0.00000E+000
  4.58752E+001	  2.73689E-003	  2.71076E-003	  0.00000E+000	  0.00000E+000
  4.91520E+001	  3.01951E-003	  3.31867E-003	  0.00000E+000	  0.00000E+000
  5.24288E+001	  2.04928E-003	  2.09413E-003	  0.00000E+000	  0.00000E+000
  5.89824E+001	  2.78245E-003	  2.16903E-003	  0.00000E+000	  0.00000E+000
  6.55360E+001	  1.29762E-003	  1.92468E-003	  0.00000E+000	  0.00000E+000
  7.20896E+001	  2.01523E-003	  2.32954E-003	  0.00000E+000	  0.00000E+000
  7.86432E+001	 -4.53467E-005	  4.13982E-004	  0.00000E+000	  0.00000E+000
  8.51968E+001	 -2.61874E-003	 -3.23591E-003	  0.00000E+000	  0.00000E+000
  9.17504E+001	 -1.98516E-003	 -1.63942E-003	  0.00000E+000	  0.00000E+000
  9.83040E+001	  1.67326E-003	  2.36662E-003	  0.00000E+000	  0.00000E+000
  1.04858E+002	  2.30197E-003	  2.53919E-003	  0.00000E+000	  0.00000E+000
  1.17965E+002	 -1.96618E-003	 -2.37684E-003	  0.00000E+000	  0.00000E+000
  1.31072E+002	  1.80314E-003	  6.15892E-004	  0.00000E+000	  0.00000E+000
  1.44179E+002	 -5.69046E-004	 -1.46972E-003	  0.00000E+000	  0.00000E+000
  1.57286E+002	  1.60158E-004	  8.80575E-005	  0.00000E+000	  0.00000E+000
  1.70394E+002	 -4.79637E-004	 -1.05157E-003	  0.00000E+000	  0.00000E+000
  1.83501E+002	 -4.73503E-004	 -4.91832E-004	  0.00000E+000	  0.00000E+000
  1.96608E+002	 -1.13966E-004	  4.95617E-004	  0.00000E+000	  0.00000E+000
  2.09715E+002	 -5.60066E-004	  1.34609E-005	  0.00000E+000	  0.00000E+000
  2.35930E+002	  3.53231E-004	  2.08573E-004	  0.00000E+000	  0.00000E+000
  2.62144E+002	 -9.66252E-004	 -9.21793E-004	  0.00000E+000	  0.00000E+000
  2.88358E+002	 -1.14517E-003	 -1.01603E-003	  0.00000E+000	  0.00000E+000
  3.14573E+002	  1.37320E-004	  7.93807E-005	  0.00000E+000	  0.00000E+000
  3.40787E+002	  7.51921E-004	  1.06001E-003	  0.00000E+000	  0.00000E+000
  3.67002E+002	 -9.94919E-004	 -9.40353E-004	  0.00000E+000	  0.00000E+000
  3.93216E+002	  2.11871E-003	  2.21393E-003	  0.00000E+000	  0.00000E+000
  4.19430E+002	 -7.64863E-004	 -4.40732E-004	  0.00000E+000	  0.00000E+000
  4.71859E+002	  4.40062E-005	  5.95886E-005	  0.00000E+000	  0.00000E+000
  5.24288E+002	 -3.37608E-004	 -5.46618E-004	  0.00000E+000	  0.00000E+000
  5.76717E+002	 -1.62633E-004	 -3.74405E-004	  0.00000E+000	  0.00000E+000
  6.29146E+002	  6.48350E-005	  5.40839E-004	  0.00000E+000	  0.00000E+000
  6.81574E+002	 -4.78528E-004	 -4.21492E-004	  0.00000E+000	  0.00000E+000
  7.34003E+002	 -1.42600E-004	  2.84579E-004	  0.00000E+000	  0.00000E+000
  7.86432E+002	  4.48369E-004	  8.55118E-004	  0.00000E+000	  0.00000E+000
  8.38861E+002	 -5.18105E-004	 -3.87159E-004	  0.00000E+000	  0.00000E+000
  9.43718E+002	 -7.18819E-004	 -3.18523E-004	  0.00000E+000	  0.00000E+000
  1.04858E+003	 -4.40733E-004	 -5.01438E-004	  0.00000E+000	  0.00000E+000
  1.15343E+003	  9.30679E-004	  1.25700E-003	  0.00000E+000	  0.00000E+000
  1.25829E+003	 -4.33445E-005	 -9.80962E-005	  0.00000E+000	  0.00000E+000
  1.36315E+003	  1.41508E-003	  1.28588E-003	  0.00000E+000	  0.00000E+000
  1.46801E+003	  1.14709E-003	  1.32069E-003	  0.00000E+000	  0.00000E+000
  1.57286E+003	  5.55475E-004	  6.93292E-004	  0.00000E+000	  0.00000E+000
  1.67772E+003	  6.37610E-004	  9.70509E-004	  0.00000E+000	  0.00000E+000
  1.88744E+003	  1.12552E-003	  1.07111E-003	  0.00000E+000	  0.00000E+000
  2.09715E+003	  2.31985E-004	  3.35741E-004	  0.00000E+000	  0.00000E+000
  2.30687E+003	 -1.06081E-004	 -2.48459E-004	  0.00000E+000	  0.00000E+000
  2.51658E+003	  7.54110E-005	  5.34172E-004	  0.00000E+000	  0.00000E+000
  2.72630E+003	 -2.96702E-004	 -1.01927E-004	  0.00000E+000	  0.00000E+000
  2.93601E+003	  4.12322E-004	  6.23836E-004	  0.00000E+000	  0.00000E+000
  3.14573E+003	 -2.61066E-005	  4.07033E-005	  0.00000E+000	  0.00000E+000
  3.35544E+003	 -8.51929E-004	 -6.55235E-004	  0.00000E+000	  0.00000E+000
  3.77487E+003	 -1.36039E-003	 -1.49938E-003	  0.00000E+000	  0.00000E+000
  4.19430E+003	  4.28117E-004	  3.87568E-004	  0.00000E+000	  0.00000E+000
  4.61373E+003	  9.49957E-004	  1.38638E-003	  0.00000E+000	  0.00000E+000
  5.03317E+003	 -1.41010E-003	 -1.50640E-003	  0.00000E+000	  0.00000E+000
  5.45260E+003	 -1.30484E-003	 -1.32635E-003	  0.00000E+000	  0.00000E+000
  5.87203E+003	  1.46193E-004	  3.92390E-004	  0.00000E+000	  0.00000E+000

"Count Rate"
       0.09375	     532.32251	     428.08832	       0.00000	       0.00000
       0.18750	     459.27222	     376.96805	       0.00000	       0.00000
       0.28125	     583.33618	     473.75006	       0.00000	       0.00000
       0.37500	     454.11221	     363.11920	       0.00000	       0.00000
       0.46875	     609.15747	     471.96967	       0.00000	       0.00000
       0.56250	     614.04028	     446.68140	       0.00000	       0.00000
       0.65625	     692.27191	     570.93726	       0.00000	       0.00000
       0.75000	     574.58337	     466.02072	       0.00000	       0.00000
       0.84375	     564.87103	     451.85205	       0.00000	       0.00000
       0.93750	     561.39551	     434.28244	       0.00000	       0.00000
       1.03125	     616.38574	     493.48389	       0.00000	       0.00000
       1.12500	     526.84265	     433.07773	       0.00000	       0.00000
       1.21875	     630.88495	     485.76520	       0.00000	       0.00000
       1.31250	     553.63416	     437.43814	       0.00000	       0.00000
       1.40625	     636.32214	     506.62909	       0.00000	       0.00000
       1.50000	     563.81555	     458.16345	       0.00000	       0.00000
       1.59375	     549.81744	     434.11188	       0.00000	       0.00000
       1.68750	     512.42877	     414.75119	       0.00000	       0.00000
       1.78125	     526.40558	     392.92780	       0.00000	       0.00000
       1.87500	     764.14948	     622.40930	       0.00000	       0.00000
       1.96875	     540.52094	     444.29327	       0.00000	       0.00000
       2.06250	     546.74707	     424.55948	       0.00000	       0.00000
       2.15625	     530.12628	     440.13544	       0.00000	       0.00000
       2.25000	     520.28607	     420.20972	       0.00000	       0.00000
       2.34375	     574.10358	     463.27014	       0.00000	       0.00000
       2.43750	     475.37057	     423.39740	       0.00000	       0.00000
       2.53125	     559.63641	     447.81146	       0.00000	       0.00000
       2.62500	     554.48706	     435.41254	       0.00000	       0.00000
       2.71875	     481.54340	     426.39319	       0.00000	       0.00000
       2.81250	     476.60727	     383.16217	       0.00000	       0.00000
       2.90625	     605.22351	     486.92728	       0.00000	       0.00000
       3.00000	     534.66797	     409.83640	       0.00000	       0.00000
       3.09375	     587.56866	     481.27686	       0.00000	       0.00000
       3.18750	     645.04297	     506.82101	       0.00000	       0.00000
       3.28125	     721.57947	     569.83911	       0.00000	       0.00000
       3.37500	     557.25897	     435.14600	       0.00000	       0.00000
       3.46875	     522.67413	     414.53796	       0.00000	       0.00000
       3.56250	     532.34381	     413.99426	       0.00000	       0.00000
       3.65625	     635.03217	     516.44806	       0.00000	       0.00000
       3.75000	     623.15558	     476.26611	       0.00000	       0.00000
       3.84375	     488.98486	     415.22031	       0.00000	       0.00000
       3.93750	     432.42740	     354.34506	       0.00000	       0.00000
       4.03125	     586.35327	     458.88843	       0.00000	       0.00000
       4.12500	     506.76770	     431.07346	       0.00000	       0.00000
       4.21875	     566.87531	     438.32303	       0.00000	       0.00000
       4.31250	     542.36530	     426.68103	       0.00000	       0.00000
       4.40625	     529.97705	     479.89090	       0.00000	       0.00000
       4.50000	     526.65076	     431.06277	       0.00000	       0.00000
       4.59375	     538.92175	     468.56876	       0.00000	       0.00000
       4.68750	     441.50006	     367.52225	       0.00000	       0.00000
       4.78125	     546.98163	     454.30411	       0.00000	       0.00000
       4.87500	     689.24414	     534.19885	       0.00000	       0.00000
       4.96875	     782.49731	     572.22723	       0.00000	       0.00000
       5.06250	     550.96887	     437.55542	       0.00000	       0.00000
       5.15625	     619.80798	     518.58026	       0.00000	       0.00000
       5.25000	     499.19827	     408.74896	       0.00000	       0.00000
       5.34375	     574.31683	     522.70612	       0.00000	       0.00000
       5.43750	     514.99811	     420.54022	       0.00000	       0.00000
       5.53125	     693.09283	     527.83417	       0.00000	       0.00000
       5.62500	     541.36316	     432.41675	       0.00000	       0.00000
       5.71875	     429.71948	     350.96545	       0.00000	       0.00000
       5.81250	     608.97626	     485.60529	       0.00000	       0.00000
       5.90625	     622.44128	     484.15536	       0.00000	       0.00000
       6.00000	     592.76062	     459.96518	       0.00000	       0.00000
       6.09375	     622.40930	     561.93921	       0.00000	       0.00000
       6.18750	     533.03680	     413.87698	       0.00000	       0.00000
       6.28125	     456.09518	     383.88715	       0.00000	       0.00000
       6.37500	     471.23404	     396.47797	       0.00000	       0.00000
       6.46875	     614.60535	     471.41528	       0.00000	       0.00000
       6.56250	     567.95209	     467.84378	       0.00000	       0.00000
       6.65625	     494.94446	     395.42252	       0.00000	       0.00000
       6.75000	     529.27344	     471.17007	       0.00000	       0.00000
       6.84375	     563.14392	     411.71277	       0.00000	       0.00000
       6.93750	     464.54950	     401.53137	       0.00000	       0.00000
       7.03125	     625.95947	     501.92752	       0.00000	       0.00000
       7.12500	     568.33594	     418.89841	       0.00000	       0.00000
       7.21875	     572.97351	     441.79858	       0.00000	       0.00000
       7.31250	     602.48358	     457.40652	       0.00000	       0.00000
       7.40625	     668.82800	     569.89246	       0.00000	       0.00000
       7.50000	     570.56409	     493.70776	       0.00000	       0.00000
       7.59375	     596.84387	     449.92236	       0.00000	       0.00000
       7.68750	     623.18756	     463.65396	       0.00000	       0.00000
       7.78125	     532.31183	     416.60623	       0.00000	       0.00000
       7.87500	     568.60242	     461.09528	       0.00000	       0.00000
       7.96875	     710.52380	     556.55530	       0.00000	       0.00000
       8.06250	     567.31244	     454.10156	       0.00000	       0.00000
       8.15625	     576.98212	     467.24677	       0.00000	       0.00000
       8.25000	     486.42621	     387.93839	       0.00000	       0.00000
       8.34375	     515.47784	     425.04990	       0.00000	       0.00000
       8.43750	     530.86194	     450.25287	       0.00000	       0.00000
       8.53125	     582.00354	     435.86029	       0.00000	       0.00000
       8.62500	     617.44122	     438.64285	       0.00000	       0.00000
       8.71875	     505.33911	     423.95178	       0.00000	       0.00000
       8.81250	     536.61896	     415.79599	       0.00000	       0.00000
       8.90625	     583.99713	     475.79703	       0.00000	       0.00000
       9.00000	     505.49902	     410.56137	       0.00000	       0.00000
       9.09375	     587.38739	     534.58264	       0.00000	       0.00000
       9.18750	     477.70535	     382.67175	       0.00000	       0.00000
       9.28125	     595.62848	     494.27283	       0.00000	       0.00000
       9.37500	     588.97589	     449.81577	       0.00000	       0.00000
       9.46875	     627.80389	     477.96124	       0.00000	       0.00000
       9.56250	     706.03546	     580.83081	       0.00000	       0.00000
       9.65625	     483.95282	     407.78946	       0.00000	       0.00000
       9.75000	     509.52893	     387.65051	       0.00000	       0.00000
       9.84375	     575.67078	     466.39386	       0.00000	       0.00000
       9.93750	     548.99658	     421.01996	       0.00000	       0.00000
      10.03125	     458.92041	     366.65869	       0.00000	       0.00000
      10.12500	     494.56067	     401.27548	       0.00000	       0.00000
      10.21875	     529.23077	     447.27841	       0.00000	       0.00000
      10.31250	     513.23901	     423.72791	       0.00000	       0.00000
      10.40625	     668.11371	     538.25012	       0.00000	       0.00000
      10.50000	     591.47064	     451.59619	       0.00000	       0.00000
      10.59375	     589.87146	     477.20428	       0.00000	       0.00000
      10.68750	     635.74646	     506.40521	       0.00000	       0.00000
      10.78125	     564.38062	     450.01834	       0.00000	       0.00000
      10.87500	     493.30264	     387.73581	       0.00000	       0.00000
      10.96875	     540.30774	     426.65973	       0.00000	       0.00000
      11.06250	     512.20490	     426.31857	       0.00000	       0.00000
      11.15625	     457.96091	     352.49002	       0.00000	       0.00000
      11.25000	     522.00250	     423.68524	       0.00000	       0.00000
      11.34375	     447.40634	     351.86099	       0.00000	       0.00000
      11.43750	     609.97839	     465.28513	       0.00000	       0.00000
      11.53125	     633.13446	     491.99133	       0.00000	       0.00000
      11.62500	     513.86804	     385.57159	       0.00000	       0.00000
      11.71875	     644.77643	     520.45660	       0.00000	       0.00000
      11.81250	     676.00299	     498.33472	       0.00000	       0.00000
      11.90625	     550.85162	     430.73230	       0.00000	       0.00000
      12.00000	     509.56091	     428.71732	       0.00000	       0.00000
      12.09375	     565.43610	     478.55826	       0.00000	       0.00000
      12.18750	     756.12164	     577.54718	       0.00000	       0.00000
      12.28125	     518.35638	     432.60864	       0.00000	       0.00000
      12.37500	     482.02313	     393.66342	       0.00000	       0.00000
      12.46875	     691.42969	     517.97260	       0.00000	       0.00000
      12.56250	     527.55695	     449.27203	       0.00000	       0.00000
      12.65625	     490.65869	     386.54178	       0.00000	       0.00000
      12.75000	     491.08511	     393.98325	       0.00000	       0.00000
      12.84375	     481.38345	     376.34970	       0.00000	       0.00000
      12.93750	     647.11127	     581.25726	       0.00000	       0.00000
      13.03125	     588.37891	     473.86734	       0.00000	       0.00000
      13.12500	     537.30127	     437.87527	       0.00000	       0.00000
      13.21875	     492.10861	     396.73383	       0.00000	       0.00000
      13.31250	     551.70447	     438.51492	       0.00000	       0.00000
      13.40625	     506.22397	     410.90253	       0.00000	       0.00000
      13.50000	     652.91089	     477.50281	       0.00000	       0.00000
      13.59375	     571.06519	     455.98859	       0.00000	       0.00000
      13.68750	     560.70251	     445.81784	       0.00000	       0.00000
      13.78125	     596.92914	     462.31064	       0.00000	       0.00000
      13.87500	     720.73724	     546.21399	       0.00000	       0.00000
      13.96875	     611.42834	     480.88239	       0.00000	       0.00000
      14.06250	     536.99207	     404.27127	       0.00000	       0.00000
      14.15625	     465.76486	     366.38150	       0.00000	       0.00000
      14.25000	     724.77783	     575.63879	       0.00000	       0.00000
      14.34375	     579.81799	     443.35510	       0.00000	       0.00000
      14.43750	     744.97003	     570.95856	       0.00000	       0.00000
      14.53125	     570.66003	     442.22501	       0.00000	       0.00000
      14.62500	     592.96320	     467.85446	       0.00000	       0.00000
      14.71875	     474.24048	     376.87210	       0.00000	       0.00000
      14.81250	     622.37732	     495.02975	       0.00000	       0.00000
      14.90625	     572.82428	     471.94833	       0.00000	       0.00000
      15.00000	     586.36395	     522.50360	       0.00000	       0.00000
      15.09375	     583.40015	     497.69504	       0.00000	       0.00000
      15.18750	     587.00360	     474.59232	       0.00000	       0.00000
      15.28125	     696.89886	     625.28784	       0.00000	       0.00000
      15.37500	     563.34650	     457.41718	       0.00000	       0.00000
      15.46875	     582.32336	     444.74106	       0.00000	       0.00000
      15.56250	     652.13263	     472.15091	       0.00000	       0.00000
      15.65625	     568.37854	     441.61734	       0.00000	       0.00000
      15.75000	     550.69171	     425.19913	       0.00000	       0.00000
      15.84375	     607.43042	     461.14859	       0.00000	       0.00000
      15.93750	     517.24762	     398.46094	       0.00000	       0.00000
      16.03125	     473.03577	     397.56540	       0.00000	       0.00000
      16.12500	     694.78796	     559.22064	       0.00000	       0.00000
      16.21875	     667.83655	     502.50323	       0.00000	       0.00000
      16.31250	     655.10712	     484.13403	       0.00000	       0.00000
      16.40625	     673.26306	     552.77063	       0.00000	       0.00000
      16.50000	     634.45642	     518.87878	       0.00000	       0.00000
      16.59375	     717.76276	     579.84998	       0.00000	       0.00000
      16.68750	     575.56415	     479.35785	       0.00000	       0.00000
      16.78125	     556.97113	     446.50015	       0.00000	       0.00000
      16.87500	     591.43866	     477.07635	       0.00000	       0.00000
      16.96875	     620.43701	     490.50943	       0.00000	       0.00000
      17.06250	     607.22784	     490.65869	       0.00000	       0.00000
      17.15625	     598.51764	     538.66589	       0.00000	       0.00000
      17.25000	     579.84998	     495.49884	       0.00000	       0.00000
      17.34375	     597.32361	     474.91214	       0.00000	       0.00000
      17.43750	     558.66626	     478.06784	       0.00000	       0.00000
      17.53125	     507.54596	     398.64218	       0.00000	       0.00000
      17.62500	     498.24942	     407.64020	       0.00000	       0.00000
      17.71875	     592.27020	     498.20679	       0.00000	       0.00000
      17.81250	     519.98755	     429.42096	       0.00000	       0.00000
      17.90625	     565.84119	     471.14874	       0.00000	       0.00000
      18.00000	     606.02313	     494.31546	       0.00000	       0.00000
      18.09375	     576.29980	     476.25546	       0.00000	       0.00000
      18.18750	     719.48987	     599.67975	       0.00000	       0.00000
      18.28125	     527.78082	     424.31427	       0.00000	       0.00000
      18.37500	     592.28088	     499.63538	       0.00000	       0.00000
      18.46875	     632.91058	     515.60577	       0.00000	       0.00000
      18.56250	     536.42706	     428.53607	       0.00000	       0.00000
      18.65625	     586.73706	     482.58817	       0.00000	       0.00000
      18.75000	     559.03937	     446.03107	       0.00000	       0.00000
      18.84375	     547.58929	     422.92831	       0.00000	       0.00000
      18.93750	     478.48364	     398.16245	       0.00000	       0.00000
      19.03125	     677.79407	     521.60803	       0.00000	       0.00000
      19.12500	     553.34631	     430.71097	       0.00000	       0.00000
      19.21875	     551.23541	     419.16492	       0.00000	       0.00000
      19.31250	     536.38440	     411.25433	       0.00000	       0.00000
      19.40625	     405.12418	     359.56903	       0.00000	       0.00000
      19.50000	     509.15579	     447.51294	       0.00000	       0.00000
      19.59375	     627.36676	     498.89975	       0.00000	       0.00000
      19.68750	     583.40015	     470.73297	       0.00000	       0.00000
      19.78125	     646.91931	     509.52893	       0.00000	       0.00000
      19.87500	     543.68732	     430.83890	       0.00000	       0.00000
      19.96875	     480.39197	     391.97897	       0.00000	       0.00000
      20.06250	     516.73590	     418.24808	       0.00000	       0.00000
      20.15625	     528.29260	     432.18219	       0.00000	       0.00000
      20.25000	     639.77637	     488.17462	       0.00000	       0.00000
      20.34375	     602.49426	     481.34082	       0.00000	       0.00000
      20.43750	     579.03973	     438.04584	       0.00000	       0.00000
      20.53125	     633.42230	     509.17712	       0.00000	       0.00000
      20.62500	     481.43677	     368.31119	       0.00000	       0.00000
      20.71875	     549.08185	     435.41254	       0.00000	       0.00000
      20.81250	     590.80963	     456.09518	       0.00000	       0.00000
      20.90625	     483.38776	     375.01706	       0.00000	       0.00000
      21.00000	     591.93970	     520.12616	       0.00000	       0.00000
      21.09375	     664.14777	     481.92719	       0.00000	       0.00000
      21.18750	     543.93250	     469.19775	       0.00000	       0.00000
      21.28125	     559.39117	     412.91748	       0.00000	       0.00000
      21.37500	     531.23505	     417.69370	       0.00000	       0.00000
      21.46875	     598.31512	     499.90192	       0.00000	       0.00000
      21.56250	     565.16956	     480.06149	       0.00000	       0.00000
      21.65625	     480.99966	     373.34326	       0.00000	       0.00000
      21.75000	     701.38721	     574.22089	       0.00000	       0.00000
      21.84375	     584.64746	     477.34290	       0.00000	       0.00000
      21.93750	     530.06232	     432.45938	       0.00000	       0.00000
      22.03125	     553.34631	     415.32690	       0.00000	       0.00000
      22.12500	     494.95514	     409.75113	       0.00000	       0.00000
      22.21875	     541.99219	     425.70023	       0.00000	       0.00000
      22.31250	     574.11426	     490.61603	       0.00000	       0.00000
      22.40625	     631.48199	     494.97644	       0.00000	       0.00000
      22.50000	     643.33716	     511.07480	       0.00000	       0.00000
      22.59375	     586.34259	     447.75815	       0.00000	       0.00000
      22.68750	     543.91119	     431.20139	       0.00000	       0.00000
      22.78125	     515.39258	     380.97665	       0.00000	       0.00000
      22.87500	     627.53735	     490.67999	       0.00000	       0.00000
      22.96875	     607.70758	     528.76166	       0.00000	       0.00000
      23.06250	     535.40356	     445.17816	       0.00000	       0.00000
      23.15625	     628.62476	     494.55002	       0.00000	       0.00000
      23.25000	     441.50006	     364.25995	       0.00000	       0.00000
      23.34375	     698.71124	     518.66553	       0.00000	       0.00000
      23.43750	     582.14209	     439.06931	       0.00000	       0.00000
      23.53125	     551.75781	     443.38708	       0.00000	       0.00000
      23.62500	     513.33496	     431.07346	       0.00000	       0.00000
      23.71875	     602.63287	     522.21570	       0.00000	       0.00000
      23.81250	     590.23395	     520.23273	       0.00000	       0.00000

Monitor Diode	  23426.83
