ALV-7004 or ALV-7004/FAST Data
Date :	"04.06.2015"
Time :	"16:13:55"
Samplename : 	""
SampMemo(0) : 	""
SampMemo(1) : 	""
SampMemo(2) : 	""
SampMemo(3) : 	""
SampMemo(4) : 	""
SampMemo(5) : 	""
SampMemo(6) : 	""
SampMemo(7) : 	""
SampMemo(8) : 	""
SampMemo(9) : 	""
Temperature [K] :	     297.93009
Viscosity [cp]  :	       0.89000
Refractive Index:	       1.33200
Wavelength [nm] :	     632.80000
Angle [°]       :	      60.70000
Duration [s]    :	        30
Runs            :	         1
Mode            :	"C-CH0/1+1/0 "
MeanCR0 [kHz]   :	     514.69885
MeanCR1 [kHz]   :	     410.53217
MeanCR2 [kHz]   :	       0.00000
MeanCR3 [kHz]   :	       0.00000

"Correlation"
  2.50000E-005	  2.96683E-001	  2.96713E-001	  0.00000E+000	  0.00000E+000
  5.00000E-005	  2.95279E-001	  2.99657E-001	  0.00000E+000	  0.00000E+000
  7.50000E-005	  3.00826E-001	  3.01249E-001	  0.00000E+000	  0.00000E+000
  1.00000E-004	  2.92804E-001	  2.91249E-001	  0.00000E+000	  0.00000E+000
  1.25000E-004	  2.95581E-001	  2.93853E-001	  0.00000E+000	  0.00000E+000
  1.50000E-004	  2.93136E-001	  2.89959E-001	  0.00000E+000	  0.00000E+000
  1.75000E-004	  2.92302E-001	  2.89868E-001	  0.00000E+000	  0.00000E+000
  2.00000E-004	  2.97875E-001	  2.96970E-001	  0.00000E+000	  0.00000E+000
  2.25000E-004	  2.94143E-001	  2.93219E-001	  0.00000E+000	  0.00000E+000
  2.50000E-004	  2.96294E-001	  2.98992E-001	  0.00000E+000	  0.00000E+000
  2.75000E-004	  2.95249E-001	  2.92638E-001	  0.00000E+000	  0.00000E+000
  3.00000E-004	  2.94992E-001	  2.93657E-001	  0.00000E+000	  0.00000E+000
  3.25000E-004	  2.95721E-001	  2.99823E-001	  0.00000E+000	  0.00000E+000
  3.50000E-004	  2.96985E-001	  2.98147E-001	  0.00000E+000	  0.00000E+000
  3.75000E-004	  2.95362E-001	  2.91921E-001	  0.00000E+000	  0.00000E+000
  4.00000E-004	  2.96191E-001	  2.93887E-001	  0.00000E+000	  0.00000E+000
  4.50000E-004	  2.94842E-001	  2.93808E-001	  0.00000E+000	  0.00000E+000
  5.00000E-004	  2.96743E-001	  2.96279E-001	  0.00000E+000	  0.00000E+000
  5.50000E-004	  2.93768E-001	  2.92540E-001	  0.00000E+000	  0.00000E+000
  6.00000E-004	  2.94298E-001	  2.94536E-001	  0.00000E+000	  0.00000E+000
  6.50000E-004	  2.94760E-001	  2.95619E-001	  0.00000E+000	  0.00000E+000
  7.00000E-004	  2.94951E-001	  2.95026E-001	  0.00000E+000	  0.00000E+000
  7.50000E-004	  2.98083E-001	  2.99155E-001	  0.00000E+000	  0.00000E+000
  8.00000E-004	  2.93948E-001	  2.92787E-001	  0.00000E+000	  0.00000E+000
  9.00000E-004	  2.94342E-001	  2.95659E-001	  0.00000E+000	  0.00000E+000
  1.00000E-003	  2.94370E-001	  2.95596E-001	  0.00000E+000	  0.00000E+000
  1.10000E-003	  2.95360E-001	  2.94681E-001	  0.00000E+000	  0.00000E+000
  1.20000E-003	  2.95387E-001	  2.93777E-001	  0.00000E+000	  0.00000E+000
  1.30000E-003	  2.96719E-001	  2.96998E-001	  0.00000E+000	  0.00000E+000
  1.40000E-003	  2.96145E-001	  2.95076E-001	  0.00000E+000	  0.00000E+000
  1.50000E-003	  2.94540E-001	  2.94611E-001	  0.00000E+000	  0.00000E+000
  1.60000E-003	  2.95110E-001	  2.94952E-001	  0.00000E+000	  0.00000E+000
  1.80000E-003	  2.94851E-001	  2.94155E-001	  0.00000E+000	  0.00000E+000
  2.00000E-003	  2.95189E-001	  2.94130E-001	  0.00000E+000	  0.00000E+000
  2.20000E-003	  2.94889E-001	  2.94698E-001	  0.00000E+000	  0.00000E+000
  2.40000E-003	  2.94568E-001	  2.93953E-001	  0.00000E+000	  0.00000E+000
  2.60000E-003	  2.94846E-001	  2.95311E-001	  0.00000E+000	  0.00000E+000
  2.80000E-003	  2.94382E-001	  2.95412E-001	  0.00000E+000	  0.00000E+000
  3.00000E-003	  2.95289E-001	  2.94913E-001	  0.00000E+000	  0.00000E+000
  3.20000E-003	  2.95611E-001	  2.95397E-001	  0.00000E+000	  0.00000E+000
  3.60000E-003	  2.94678E-001	  2.95953E-001	  0.00000E+000	  0.00000E+000
  4.00000E-003	  2.94979E-001	  2.95119E-001	  0.00000E+000	  0.00000E+000
  4.40000E-003	  2.95195E-001	  2.94746E-001	  0.00000E+000	  0.00000E+000
  4.80000E-003	  2.95871E-001	  2.95822E-001	  0.00000E+000	  0.00000E+000
  5.20000E-003	  2.93150E-001	  2.92935E-001	  0.00000E+000	  0.00000E+000
  5.60000E-003	  2.95495E-001	  2.95793E-001	  0.00000E+000	  0.00000E+000
  6.00000E-003	  2.94743E-001	  2.94659E-001	  0.00000E+000	  0.00000E+000
  6.40000E-003	  2.94856E-001	  2.94676E-001	  0.00000E+000	  0.00000E+000
  7.20000E-003	  2.93970E-001	  2.93884E-001	  0.00000E+000	  0.00000E+000
  8.00000E-003	  2.94281E-001	  2.94114E-001	  0.00000E+000	  0.00000E+000
  8.80000E-003	  2.94516E-001	  2.94731E-001	  0.00000E+000	  0.00000E+000
  9.60000E-003	  2.94313E-001	  2.93896E-001	  0.00000E+000	  0.00000E+000
  1.04000E-002	  2.94351E-001	  2.94789E-001	  0.00000E+000	  0.00000E+000
  1.12000E-002	  2.94124E-001	  2.94039E-001	  0.00000E+000	  0.00000E+000
  1.20000E-002	  2.93209E-001	  2.92547E-001	  0.00000E+000	  0.00000E+000
  1.28000E-002	  2.93706E-001	  2.93643E-001	  0.00000E+000	  0.00000E+000
  1.44000E-002	  2.94118E-001	  2.94022E-001	  0.00000E+000	  0.00000E+000
  1.60000E-002	  2.93564E-001	  2.93565E-001	  0.00000E+000	  0.00000E+000
  1.76000E-002	  2.93677E-001	  2.93925E-001	  0.00000E+000	  0.00000E+000
  1.92000E-002	  2.93755E-001	  2.93922E-001	  0.00000E+000	  0.00000E+000
  2.08000E-002	  2.93011E-001	  2.93678E-001	  0.00000E+000	  0.00000E+000
  2.24000E-002	  2.93194E-001	  2.93232E-001	  0.00000E+000	  0.00000E+000
  2.40000E-002	  2.93518E-001	  2.93425E-001	  0.00000E+000	  0.00000E+000
  2.56000E-002	  2.93046E-001	  2.93011E-001	  0.00000E+000	  0.00000E+000
  2.88000E-002	  2.93210E-001	  2.93314E-001	  0.00000E+000	  0.00000E+000
  3.20000E-002	  2.92393E-001	  2.92113E-001	  0.00000E+000	  0.00000E+000
  3.52000E-002	  2.92161E-001	  2.92282E-001	  0.00000E+000	  0.00000E+000
  3.84000E-002	  2.92330E-001	  2.92320E-001	  0.00000E+000	  0.00000E+000
  4.16000E-002	  2.91669E-001	  2.91555E-001	  0.00000E+000	  0.00000E+000
  4.48000E-002	  2.91492E-001	  2.91583E-001	  0.00000E+000	  0.00000E+000
  4.80000E-002	  2.91411E-001	  2.91387E-001	  0.00000E+000	  0.00000E+000
  5.12000E-002	  2.90897E-001	  2.90924E-001	  0.00000E+000	  0.00000E+000
  5.76000E-002	  2.90657E-001	  2.90504E-001	  0.00000E+000	  0.00000E+000
  6.40000E-002	  2.90201E-001	  2.90401E-001	  0.00000E+000	  0.00000E+000
  7.04000E-002	  2.89506E-001	  2.89678E-001	  0.00000E+000	  0.00000E+000
  7.68000E-002	  2.89078E-001	  2.89083E-001	  0.00000E+000	  0.00000E+000
  8.32000E-002	  2.88513E-001	  2.88595E-001	  0.00000E+000	  0.00000E+000
  8.96000E-002	  2.88262E-001	  2.88284E-001	  0.00000E+000	  0.00000E+000
  9.60000E-002	  2.87601E-001	  2.87531E-001	  0.00000E+000	  0.00000E+000
  1.02400E-001	  2.87271E-001	  2.87362E-001	  0.00000E+000	  0.00000E+000
  1.15200E-001	  2.86471E-001	  2.86795E-001	  0.00000E+000	  0.00000E+000
  1.28000E-001	  2.85534E-001	  2.85627E-001	  0.00000E+000	  0.00000E+000
  1.40800E-001	  2.84694E-001	  2.84994E-001	  0.00000E+000	  0.00000E+000
  1.53600E-001	  2.83791E-001	  2.83917E-001	  0.00000E+000	  0.00000E+000
  1.66400E-001	  2.82857E-001	  2.83071E-001	  0.00000E+000	  0.00000E+000
  1.79200E-001	  2.82261E-001	  2.82396E-001	  0.00000E+000	  0.00000E+000
  1.92000E-001	  2.81166E-001	  2.81167E-001	  0.00000E+000	  0.00000E+000
  2.04800E-001	  2.80307E-001	  2.80462E-001	  0.00000E+000	  0.00000E+000
  2.30400E-001	  2.78630E-001	  2.78783E-001	  0.00000E+000	  0.00000E+000
  2.56000E-001	  2.76980E-001	  2.77163E-001	  0.00000E+000	  0.00000E+000
  2.81600E-001	  2.75311E-001	  2.75555E-001	  0.00000E+000	  0.00000E+000
  3.07200E-001	  2.73703E-001	  2.73962E-001	  0.00000E+000	  0.00000E+000
  3.32800E-001	  2.72015E-001	  2.72266E-001	  0.00000E+000	  0.00000E+000
  3.58400E-001	  2.70482E-001	  2.70679E-001	  0.00000E+000	  0.00000E+000
  3.84000E-001	  2.68943E-001	  2.69104E-001	  0.00000E+000	  0.00000E+000
  4.09600E-001	  2.67294E-001	  2.67591E-001	  0.00000E+000	  0.00000E+000
  4.60800E-001	  2.64100E-001	  2.64390E-001	  0.00000E+000	  0.00000E+000
  5.12000E-001	  2.61160E-001	  2.61651E-001	  0.00000E+000	  0.00000E+000
  5.63200E-001	  2.58122E-001	  2.58447E-001	  0.00000E+000	  0.00000E+000
  6.14400E-001	  2.55039E-001	  2.55365E-001	  0.00000E+000	  0.00000E+000
  6.65600E-001	  2.52177E-001	  2.52525E-001	  0.00000E+000	  0.00000E+000
  7.16800E-001	  2.49304E-001	  2.49596E-001	  0.00000E+000	  0.00000E+000
  7.68000E-001	  2.46524E-001	  2.46904E-001	  0.00000E+000	  0.00000E+000
  8.19200E-001	  2.43691E-001	  2.44035E-001	  0.00000E+000	  0.00000E+000
  9.21600E-001	  2.38204E-001	  2.38591E-001	  0.00000E+000	  0.00000E+000
  1.02400E+000	  2.32945E-001	  2.33419E-001	  0.00000E+000	  0.00000E+000
  1.12640E+000	  2.27880E-001	  2.28325E-001	  0.00000E+000	  0.00000E+000
  1.22880E+000	  2.22899E-001	  2.23375E-001	  0.00000E+000	  0.00000E+000
  1.33120E+000	  2.17997E-001	  2.18504E-001	  0.00000E+000	  0.00000E+000
  1.43360E+000	  2.13258E-001	  2.13753E-001	  0.00000E+000	  0.00000E+000
  1.53600E+000	  2.08530E-001	  2.09052E-001	  0.00000E+000	  0.00000E+000
  1.63840E+000	  2.04101E-001	  2.04652E-001	  0.00000E+000	  0.00000E+000
  1.84320E+000	  1.95458E-001	  1.96044E-001	  0.00000E+000	  0.00000E+000
  2.04800E+000	  1.87448E-001	  1.88104E-001	  0.00000E+000	  0.00000E+000
  2.25280E+000	  1.79877E-001	  1.80472E-001	  0.00000E+000	  0.00000E+000
  2.45760E+000	  1.72650E-001	  1.73187E-001	  0.00000E+000	  0.00000E+000
  2.66240E+000	  1.65755E-001	  1.66361E-001	  0.00000E+000	  0.00000E+000
  2.86720E+000	  1.59141E-001	  1.59788E-001	  0.00000E+000	  0.00000E+000
  3.07200E+000	  1.53104E-001	  1.53802E-001	  0.00000E+000	  0.00000E+000
  3.27680E+000	  1.47232E-001	  1.47953E-001	  0.00000E+000	  0.00000E+000
  3.68640E+000	  1.35870E-001	  1.36583E-001	  0.00000E+000	  0.00000E+000
  4.09600E+000	  1.25521E-001	  1.26304E-001	  0.00000E+000	  0.00000E+000
  4.50560E+000	  1.16276E-001	  1.17115E-001	  0.00000E+000	  0.00000E+000
  4.91520E+000	  1.07538E-001	  1.08456E-001	  0.00000E+000	  0.00000E+000
  5.32480E+000	  9.94175E-002	  1.00376E-001	  0.00000E+000	  0.00000E+000
  5.73440E+000	  9.16345E-002	  9.26621E-002	  0.00000E+000	  0.00000E+000
  6.14400E+000	  8.45086E-002	  8.56878E-002	  0.00000E+000	  0.00000E+000
  6.55360E+000	  7.78854E-002	  7.92384E-002	  0.00000E+000	  0.00000E+000
  7.37280E+000	  6.57210E-002	  6.73579E-002	  0.00000E+000	  0.00000E+000
  8.19200E+000	  5.51205E-002	  5.71204E-002	  0.00000E+000	  0.00000E+000
  9.01120E+000	  4.65004E-002	  4.89727E-002	  0.00000E+000	  0.00000E+000
  9.83040E+000	  3.95357E-002	  4.21259E-002	  0.00000E+000	  0.00000E+000
  1.06496E+001	  3.33218E-002	  3.60187E-002	  0.00000E+000	  0.00000E+000
  1.14688E+001	  2.74427E-002	  3.02279E-002	  0.00000E+000	  0.00000E+000
  1.22880E+001	  2.26848E-002	  2.53349E-002	  0.00000E+000	  0.00000E+000
  1.31072E+001	  1.98970E-002	  2.22895E-002	  0.00000E+000	  0.00000E+000
  1.47456E+001	  1.51346E-002	  1.70557E-002	  0.00000E+000	  0.00000E+000
  1.63840E+001	  1.17199E-002	  1.36716E-002	  0.00000E+000	  0.00000E+000
  1.80224E+001	  9.14001E-003	  1.09389E-002	  0.00000E+000	  0.00000E+000
  1.96608E+001	  8.24450E-003	  9.91469E-003	  0.00000E+000	  0.00000E+000
  2.12992E+001	  8.67509E-003	  9.98875E-003	  0.00000E+000	  0.00000E+000
  2.29376E+001	  7.38458E-003	  7.97912E-003	  0.00000E+000	  0.00000E+000
  2.45760E+001	  6.13738E-003	  5.98802E-003	  0.00000E+000	  0.00000E+000
  2.62144E+001	  6.03641E-003	  5.25490E-003	  0.00000E+000	  0.00000E+000
  2.94912E+001	  5.33060E-003	  4.05926E-003	  0.00000E+000	  0.00000E+000
  3.27680E+001	  1.13318E-003	 -7.04717E-004	  0.00000E+000	  0.00000E+000
  3.60448E+001	 -2.41622E-003	 -3.42808E-003	  0.00000E+000	  0.00000E+000
  3.93216E+001	 -4.69268E-003	 -5.62085E-003	  0.00000E+000	  0.00000E+000
  4.25984E+001	 -4.67423E-003	 -6.81600E-003	  0.00000E+000	  0.00000E+000
  4.58752E+001	 -3.33100E-003	 -6.28057E-003	  0.00000E+000	  0.00000E+000
  4.91520E+001	 -2.72067E-003	 -6.71563E-003	  0.00000E+000	  0.00000E+000
  5.24288E+001	 -3.74391E-003	 -8.05433E-003	  0.00000E+000	  0.00000E+000
  5.89824E+001	 -6.24807E-003	 -9.51290E-003	  0.00000E+000	  0.00000E+000
  6.55360E+001	 -5.93862E-003	 -8.25103E-003	  0.00000E+000	  0.00000E+000
  7.20896E+001	 -3.44573E-003	 -4.72239E-003	  0.00000E+000	  0.00000E+000
  7.86432E+001	 -1.96714E-003	 -2.42557E-003	  0.00000E+000	  0.00000E+000
  8.51968E+001	 -4.23012E-003	 -5.90862E-003	  0.00000E+000	  0.00000E+000
  9.17504E+001	  9.78346E-004	 -1.97806E-003	  0.00000E+000	  0.00000E+000
  9.83040E+001	 -2.54717E-003	 -6.24815E-003	  0.00000E+000	  0.00000E+000
  1.04858E+002	 -4.12302E-004	 -3.01272E-003	  0.00000E+000	  0.00000E+000
  1.17965E+002	 -2.25827E-003	 -2.28016E-003	  0.00000E+000	  0.00000E+000
  1.31072E+002	 -3.55521E-003	 -2.31472E-003	  0.00000E+000	  0.00000E+000
  1.44179E+002	 -4.58172E-003	 -4.30309E-003	  0.00000E+000	  0.00000E+000
  1.57286E+002	 -3.71244E-003	 -3.15422E-003	  0.00000E+000	  0.00000E+000
  1.70394E+002	  1.88427E-003	  3.75620E-003	  0.00000E+000	  0.00000E+000
  1.83501E+002	 -2.99816E-003	 -1.09667E-003	  0.00000E+000	  0.00000E+000
  1.96608E+002	  6.05584E-004	  1.13697E-003	  0.00000E+000	  0.00000E+000
  2.09715E+002	  2.92217E-003	  2.79825E-003	  0.00000E+000	  0.00000E+000
  2.35930E+002	  2.84452E-003	  2.62493E-003	  0.00000E+000	  0.00000E+000
  2.62144E+002	 -2.22389E-003	 -6.92770E-004	  0.00000E+000	  0.00000E+000
  2.88358E+002	 -1.09957E-003	 -1.57336E-003	  0.00000E+000	  0.00000E+000
  3.14573E+002	  1.17125E-006	 -1.15095E-003	  0.00000E+000	  0.00000E+000
  3.40787E+002	  7.59055E-003	  6.56004E-003	  0.00000E+000	  0.00000E+000
  3.67002E+002	 -7.18376E-004	 -1.79404E-003	  0.00000E+000	  0.00000E+000
  3.93216E+002	  1.95537E-003	  2.56200E-003	  0.00000E+000	  0.00000E+000
  4.19430E+002	  4.17796E-004	  2.67117E-003	  0.00000E+000	  0.00000E+000
  4.71859E+002	  8.64607E-004	  1.59703E-003	  0.00000E+000	  0.00000E+000
  5.24288E+002	  3.96329E-003	  2.66740E-003	  0.00000E+000	  0.00000E+000
  5.76717E+002	 -4.96464E-003	 -4.48621E-003	  0.00000E+000	  0.00000E+000
  6.29146E+002	  4.55586E-004	  8.81921E-004	  0.00000E+000	  0.00000E+000
  6.81574E+002	 -1.31123E-003	  1.86940E-004	  0.00000E+000	  0.00000E+000
  7.34003E+002	  7.88317E-004	  6.34673E-004	  0.00000E+000	  0.00000E+000
  7.86432E+002	  2.20678E-003	  1.92158E-003	  0.00000E+000	  0.00000E+000
  8.38861E+002	  6.63089E-004	  7.75349E-004	  0.00000E+000	  0.00000E+000
  9.43718E+002	 -3.10821E-004	  2.75733E-004	  0.00000E+000	  0.00000E+000
  1.04858E+003	 -4.56494E-004	 -1.04010E-003	  0.00000E+000	  0.00000E+000
  1.15343E+003	 -1.30281E-003	 -1.12707E-003	  0.00000E+000	  0.00000E+000
  1.25829E+003	  5.82814E-004	  2.80202E-004	  0.00000E+000	  0.00000E+000
  1.36315E+003	 -1.81342E-003	 -8.24611E-004	  0.00000E+000	  0.00000E+000
  1.46801E+003	 -8.55011E-004	 -1.57961E-004	  0.00000E+000	  0.00000E+000
  1.57286E+003	 -1.28500E-003	 -1.00103E-003	  0.00000E+000	  0.00000E+000
  1.67772E+003	 -1.96780E-003	 -1.44613E-003	  0.00000E+000	  0.00000E+000
  1.88744E+003	 -3.93113E-004	 -1.69494E-004	  0.00000E+000	  0.00000E+000
  2.09715E+003	 -1.51370E-003	 -1.85993E-003	  0.00000E+000	  0.00000E+000
  2.30687E+003	  1.20802E-003	  6.84058E-004	  0.00000E+000	  0.00000E+000
  2.51658E+003	  3.87824E-004	  2.67085E-004	  0.00000E+000	  0.00000E+000
  2.72630E+003	  1.61531E-003	  9.51928E-004	  0.00000E+000	  0.00000E+000
  2.93601E+003	  8.75763E-004	  1.37692E-003	  0.00000E+000	  0.00000E+000
  3.14573E+003	  1.98406E-003	  1.55636E-003	  0.00000E+000	  0.00000E+000
  3.35544E+003	 -3.07063E-004	 -2.32773E-004	  0.00000E+000	  0.00000E+000
  3.77487E+003	  4.26092E-004	  8.17980E-004	  0.00000E+000	  0.00000E+000
  4.19430E+003	 -9.37247E-004	 -5.82210E-004	  0.00000E+000	  0.00000E+000
  4.61373E+003	 -9.75448E-005	  4.02820E-004	  0.00000E+000	  0.00000E+000
  5.03317E+003	  1.02582E-004	 -3.31989E-004	  0.00000E+000	  0.00000E+000
  5.45260E+003	  7.29745E-004	  1.00278E-003	  0.00000E+000	  0.00000E+000
  5.87203E+003	 -4.24590E-004	 -6.33730E-004	  0.00000E+000	  0.00000E+000

"Count Rate"
       0.11719	     331.83508	     270.45236	       0.00000	       0.00000
       0.23438	     477.39835	     419.21399	       0.00000	       0.00000
       0.35156	     533.76605	     436.84326	       0.00000	       0.00000
       0.46875	     528.58899	     410.07095	       0.00000	       0.00000
       0.58594	     551.54034	     445.85834	       0.00000	       0.00000
       0.70313	     443.43613	     364.77380	       0.00000	       0.00000
       0.82031	     435.81128	     337.67740	       0.00000	       0.00000
       0.93750	     378.69302	     317.58325	       0.00000	       0.00000
       1.05469	     528.34161	     381.61844	       0.00000	       0.00000
       1.17188	     450.66867	     319.17816	       0.00000	       0.00000
       1.28906	     467.62418	     359.51147	       0.00000	       0.00000
       1.40625	     481.45810	     374.15564	       0.00000	       0.00000
       1.52344	     363.11066	     273.72748	       0.00000	       0.00000
       1.64063	     478.06360	     372.07458	       0.00000	       0.00000
       1.75781	     429.23547	     330.75192	       0.00000	       0.00000
       1.87500	     582.71356	     464.44290	       0.00000	       0.00000
       1.99219	     383.69952	     309.13107	       0.00000	       0.00000
       2.10938	     380.33911	     299.22046	       0.00000	       0.00000
       2.22656	     464.37466	     352.23630	       0.00000	       0.00000
       2.34375	     510.05560	     381.00436	       0.00000	       0.00000
       2.46094	     451.12924	     318.97345	       0.00000	       0.00000
       2.57813	     518.95984	     473.59442	       0.00000	       0.00000
       2.69531	     437.26971	     362.94861	       0.00000	       0.00000
       2.81250	     474.86523	     434.71103	       0.00000	       0.00000
       2.92969	     519.35217	     432.49353	       0.00000	       0.00000
       3.04688	     579.38727	     469.07410	       0.00000	       0.00000
       3.16406	     496.06818	     367.45190	       0.00000	       0.00000
       3.28125	     374.28357	     341.77982	       0.00000	       0.00000
       3.39844	     603.94208	     483.20654	       0.00000	       0.00000
       3.51563	     542.72992	     446.11423	       0.00000	       0.00000
       3.63281	     439.35077	     366.87192	       0.00000	       0.00000
       3.75000	     429.11606	     368.36450	       0.00000	       0.00000
       3.86719	     543.01141	     510.32001	       0.00000	       0.00000
       3.98438	     367.71631	     294.07751	       0.00000	       0.00000
       4.10156	     319.33167	     266.22202	       0.00000	       0.00000
       4.21875	     537.95374	     399.05157	       0.00000	       0.00000
       4.33594	     387.56311	     378.32629	       0.00000	       0.00000
       4.45313	     339.89493	     325.13135	       0.00000	       0.00000
       4.57031	     439.77722	     329.97577	       0.00000	       0.00000
       4.68750	     415.12009	     347.75006	       0.00000	       0.00000
       4.80469	     479.25763	     427.71732	       0.00000	       0.00000
       4.92188	     362.76950	     276.87466	       0.00000	       0.00000
       5.03906	     589.05054	     474.27673	       0.00000	       0.00000
       5.15625	     450.29340	     345.58371	       0.00000	       0.00000
       5.27344	     432.43381	     335.71576	       0.00000	       0.00000
       5.39063	     433.73874	     285.63388	       0.00000	       0.00000
       5.50781	     483.26624	     361.22577	       0.00000	       0.00000
       5.62500	     576.93945	     495.55643	       0.00000	       0.00000
       5.74219	     523.10486	     400.01535	       0.00000	       0.00000
       5.85938	     360.33878	     266.72522	       0.00000	       0.00000
       5.97656	     503.24100	     424.86014	       0.00000	       0.00000
       6.09375	     548.63196	     371.86987	       0.00000	       0.00000
       6.21094	     415.39301	     332.01419	       0.00000	       0.00000
       6.32813	     590.36401	     475.82901	       0.00000	       0.00000
       6.44531	     566.96063	     383.41806	       0.00000	       0.00000
       6.56250	     490.84845	     463.41089	       0.00000	       0.00000
       6.67969	     499.65030	     370.34320	       0.00000	       0.00000
       6.79688	     410.24155	     274.06012	       0.00000	       0.00000
       6.91406	     389.50772	     342.53888	       0.00000	       0.00000
       7.03125	     409.54218	     339.37466	       0.00000	       0.00000
       7.14844	     517.98749	     458.52380	       0.00000	       0.00000
       7.26563	     464.69876	     346.55603	       0.00000	       0.00000
       7.38281	     472.46863	     394.77859	       0.00000	       0.00000
       7.50000	     475.90576	     343.93762	       0.00000	       0.00000
       7.61719	     438.22495	     354.11264	       0.00000	       0.00000
       7.73438	     395.48648	     319.36578	       0.00000	       0.00000
       7.85156	     364.08298	     279.56128	       0.00000	       0.00000
       7.96875	     420.29715	     326.70068	       0.00000	       0.00000
       8.08594	     423.25668	     358.18948	       0.00000	       0.00000
       8.20313	     537.96228	     457.73917	       0.00000	       0.00000
       8.32031	     438.36996	     337.43860	       0.00000	       0.00000
       8.43750	     478.95914	     405.08154	       0.00000	       0.00000
       8.55469	     577.33179	     504.40094	       0.00000	       0.00000
       8.67188	     494.44766	     413.96014	       0.00000	       0.00000
       8.78906	     527.19025	     350.21494	       0.00000	       0.00000
       8.90625	     429.81543	     350.95694	       0.00000	       0.00000
       9.02344	     583.60059	     462.57504	       0.00000	       0.00000
       9.14063	     334.32553	     290.63184	       0.00000	       0.00000
       9.25781	     583.21680	     476.68192	       0.00000	       0.00000
       9.37500	     559.81342	     439.80283	       0.00000	       0.00000
       9.49219	     436.86887	     343.46854	       0.00000	       0.00000
       9.60938	     602.67981	     476.41751	       0.00000	       0.00000
       9.72656	     475.27463	     380.41586	       0.00000	       0.00000
       9.84375	     460.12726	     386.19849	       0.00000	       0.00000
       9.96094	     443.52997	     359.55411	       0.00000	       0.00000
      10.07813	     460.53665	     378.92331	       0.00000	       0.00000
      10.19531	     371.56284	     312.86673	       0.00000	       0.00000
      10.31250	     524.40125	     445.46603	       0.00000	       0.00000
      10.42969	     496.50314	     394.02805	       0.00000	       0.00000
      10.54688	     401.20941	     376.92755	       0.00000	       0.00000
      10.66406	     495.59906	     373.10657	       0.00000	       0.00000
      10.78125	     478.20004	     381.30289	       0.00000	       0.00000
      10.89844	     390.19003	     331.05042	       0.00000	       0.00000
      11.01563	     489.26208	     345.59225	       0.00000	       0.00000
      11.13281	     408.75751	     403.89603	       0.00000	       0.00000
      11.25000	     476.33221	     402.73608	       0.00000	       0.00000
      11.36719	     649.49512	     572.27417	       0.00000	       0.00000
      11.48438	     479.12970	     377.28577	       0.00000	       0.00000
      11.60156	     351.15311	     267.58664	       0.00000	       0.00000
      11.71875	     502.40515	     343.43442	       0.00000	       0.00000
      11.83594	     508.53745	     415.52094	       0.00000	       0.00000
      11.95313	     435.14603	     341.58365	       0.00000	       0.00000
      12.07031	     600.97400	     481.10843	       0.00000	       0.00000
      12.18750	     470.31079	     362.06161	       0.00000	       0.00000
      12.30469	     416.29709	     296.39737	       0.00000	       0.00000
      12.42188	     468.74149	     405.09860	       0.00000	       0.00000
      12.53906	     424.45926	     309.21637	       0.00000	       0.00000
      12.65625	     463.85440	     388.87656	       0.00000	       0.00000
      12.77344	     453.06531	     343.64764	       0.00000	       0.00000
      12.89063	     413.49106	     340.39813	       0.00000	       0.00000
      13.00781	     380.16852	     297.63406	       0.00000	       0.00000
      13.12500	     357.92508	     284.10718	       0.00000	       0.00000
      13.24219	     493.28772	     436.86887	       0.00000	       0.00000
      13.35938	     442.50647	     370.13852	       0.00000	       0.00000
      13.47656	     532.23938	     445.18457	       0.00000	       0.00000
      13.59375	     472.48566	     361.68634	       0.00000	       0.00000
      13.71094	     521.88525	     341.47278	       0.00000	       0.00000
      13.82813	     457.67944	     364.33032	       0.00000	       0.00000
      13.94531	     551.19916	     430.13953	       0.00000	       0.00000
      14.06250	     526.88318	     440.39130	       0.00000	       0.00000
      14.17969	     508.05130	     392.93634	       0.00000	       0.00000
      14.29688	     384.35623	     319.53638	       0.00000	       0.00000
      14.41406	     466.59219	     334.25729	       0.00000	       0.00000
      14.53125	     534.60187	     400.35651	       0.00000	       0.00000
      14.64844	     382.59076	     277.57404	       0.00000	       0.00000
      14.76563	     390.31796	     306.92209	       0.00000	       0.00000
      14.88281	     443.43613	     318.08646	       0.00000	       0.00000
      15.00000	     444.28903	     355.63934	       0.00000	       0.00000
      15.11719	     469.65405	     395.63147	       0.00000	       0.00000
      15.23438	     634.64624	     495.64172	       0.00000	       0.00000
      15.35156	     413.33755	     350.12964	       0.00000	       0.00000
      15.46875	     382.49692	     328.73907	       0.00000	       0.00000
      15.58594	     410.60828	     364.75674	       0.00000	       0.00000
      15.70313	     549.76630	     407.49521	       0.00000	       0.00000
      15.82031	     442.42972	     327.86914	       0.00000	       0.00000
      15.93750	     447.49591	     377.28577	       0.00000	       0.00000
      16.05469	     449.54285	     357.68628	       0.00000	       0.00000
      16.17188	     473.72238	     311.68121	       0.00000	       0.00000
      16.28906	     461.69656	     383.51187	       0.00000	       0.00000
      16.40625	     373.68655	     302.97318	       0.00000	       0.00000
      16.52344	     411.31619	     337.25095	       0.00000	       0.00000
      16.64063	     465.52606	     357.77158	       0.00000	       0.00000
      16.75781	     469.79907	     372.62042	       0.00000	       0.00000
      16.87500	     341.19986	     248.60979	       0.00000	       0.00000
      16.99219	     437.21854	     393.04721	       0.00000	       0.00000
      17.10938	     366.58194	     274.36716	       0.00000	       0.00000
      17.22656	     438.22495	     390.35208	       0.00000	       0.00000
      17.34375	     483.59033	     355.43463	       0.00000	       0.00000
      17.46094	     442.20798	     314.49576	       0.00000	       0.00000
      17.57813	     472.90359	     351.06781	       0.00000	       0.00000
      17.69531	     411.40146	     302.08618	       0.00000	       0.00000
      17.81250	     493.33890	     406.80438	       0.00000	       0.00000
      17.92969	     509.10889	     405.29477	       0.00000	       0.00000
      18.04688	     511.47141	     414.56570	       0.00000	       0.00000
      18.16406	     453.12500	     363.80151	       0.00000	       0.00000
      18.28125	     610.78229	     415.98151	       0.00000	       0.00000
      18.39844	     335.10165	     257.78693	       0.00000	       0.00000
      18.51563	     511.11319	     397.40549	       0.00000	       0.00000
      18.63281	     566.50006	     453.55997	       0.00000	       0.00000
      18.75000	     581.22101	     453.95230	       0.00000	       0.00000
      18.86719	     445.07370	     328.63675	       0.00000	       0.00000
      18.98438	     494.30267	     384.71445	       0.00000	       0.00000
      19.10156	     665.28217	     493.16833	       0.00000	       0.00000
      19.21875	     565.95422	     417.87494	       0.00000	       0.00000
      19.33594	     439.12048	     359.46881	       0.00000	       0.00000
      19.45313	     421.31210	     377.32840	       0.00000	       0.00000
      19.57031	     463.34265	     437.32941	       0.00000	       0.00000
      19.68750	     446.22510	     382.66751	       0.00000	       0.00000
      19.80469	     393.24338	     265.86380	       0.00000	       0.00000
      19.92188	     409.92596	     316.44888	       0.00000	       0.00000
      20.03906	     475.70959	     365.44760	       0.00000	       0.00000
      20.15625	     372.10016	     305.20776	       0.00000	       0.00000
      20.27344	     379.24741	     326.53860	       0.00000	       0.00000
      20.39063	     456.22101	     376.17700	       0.00000	       0.00000
      20.50781	     527.04523	     446.92447	       0.00000	       0.00000
      20.62500	     500.93817	     386.04495	       0.00000	       0.00000
      20.74219	     497.22809	     364.66293	       0.00000	       0.00000
      20.85938	     501.92755	     410.00272	       0.00000	       0.00000
      20.97656	     432.98819	     347.25540	       0.00000	       0.00000
      21.09375	     498.62683	     421.74707	       0.00000	       0.00000
      21.21094	     375.19617	     318.82846	       0.00000	       0.00000
      21.32813	     531.02826	     398.42899	       0.00000	       0.00000
      21.44531	     435.27396	     363.98917	       0.00000	       0.00000
      21.56250	     516.00879	     391.98111	       0.00000	       0.00000
      21.67969	     535.20740	     411.05179	       0.00000	       0.00000
      21.79688	     560.11188	     394.05362	       0.00000	       0.00000
      21.91406	     498.19186	     410.92386	       0.00000	       0.00000
      22.03125	     463.71793	     419.64041	       0.00000	       0.00000
      22.14844	     622.18542	     479.75232	       0.00000	       0.00000
      22.26563	     458.99289	     352.38129	       0.00000	       0.00000
      22.38281	     507.13019	     402.04523	       0.00000	       0.00000
      22.50000	     493.96152	     376.10876	       0.00000	       0.00000
      22.61719	     369.53296	     316.15039	       0.00000	       0.00000
      22.73438	     582.01422	     445.88394	       0.00000	       0.00000
      22.85156	     585.61340	     441.65359	       0.00000	       0.00000
      22.96875	     555.11395	     440.66425	       0.00000	       0.00000
      23.08594	     427.50409	     386.94049	       0.00000	       0.00000
      23.20313	     576.98212	     512.40106	       0.00000	       0.00000
      23.32031	     433.04791	     365.91669	       0.00000	       0.00000
      23.43750	     440.30603	     338.25735	       0.00000	       0.00000
      23.55469	     477.66272	     386.18143	       0.00000	       0.00000
      23.67188	     479.01883	     381.14935	       0.00000	       0.00000
      23.78906	     472.79272	     329.92459	       0.00000	       0.00000
      23.90625	     630.00647	     430.58304	       0.00000	       0.00000
      24.02344	     573.27203	     439.34225	       0.00000	       0.00000
      24.14063	     429.89218	     325.12280	       0.00000	       0.00000
      24.25781	     472.14450	     423.29932	       0.00000	       0.00000
      24.37500	     518.13251	     399.99829	       0.00000	       0.00000
      24.49219	     568.16321	     441.28683	       0.00000	       0.00000
      24.60938	     414.71069	     365.52435	       0.00000	       0.00000
      24.72656	     424.41663	     324.27844	       0.00000	       0.00000
      24.84375	     453.48322	     399.46951	       0.00000	       0.00000
      24.96094	     392.79135	     331.08453	       0.00000	       0.00000
      25.07813	     512.64838	     414.10513	       0.00000	       0.00000
      25.19531	     318.42761	     282.11142	       0.00000	       0.00000
      25.31250	     346.80334	     282.09436	       0.00000	       0.00000
      25.42969	     547.52319	     416.55295	       0.00000	       0.00000
      25.54688	     480.07642	     391.87021	       0.00000	       0.00000
      25.66406	     432.86026	     352.80771	       0.00000	       0.00000
      25.78125	     518.26044	     377.15781	       0.00000	       0.00000
      25.89844	     575.36163	     451.33392	       0.00000	       0.00000
      26.01563	     470.72870	     369.11505	       0.00000	       0.00000
      26.13281	     400.22858	     341.82245	       0.00000	       0.00000
      26.25000	     522.20935	     422.92407	       0.00000	       0.00000
      26.36719	     619.65234	     439.57254	       0.00000	       0.00000
      26.48438	     410.94943	     303.07553	       0.00000	       0.00000
      26.60156	     516.53760	     406.52292	       0.00000	       0.00000
      26.71875	     480.75021	     434.58310	       0.00000	       0.00000
      26.83594	     395.79352	     348.04004	       0.00000	       0.00000
      26.95313	     451.57272	     377.49896	       0.00000	       0.00000
      27.07031	     484.82703	     418.08817	       0.00000	       0.00000
      27.18750	     418.74487	     313.15674	       0.00000	       0.00000
      27.30469	     564.59814	     432.24619	       0.00000	       0.00000
      27.42188	     389.76358	     285.65945	       0.00000	       0.00000
      27.53906	     355.52844	     295.13510	       0.00000	       0.00000
      27.65625	     444.36578	     370.09586	       0.00000	       0.00000
      27.77344	     509.52682	     372.27927	       0.00000	       0.00000
      27.89063	     451.45334	     356.66281	       0.00000	       0.00000
      28.00781	     487.53070	     366.16403	       0.00000	       0.00000
      28.12500	     539.28424	     418.60843	       0.00000	       0.00000
      28.24219	     450.06311	     353.06360	       0.00000	       0.00000
      28.35938	     431.50415	     374.87207	       0.00000	       0.00000
      28.47656	     372.30487	     267.56961	       0.00000	       0.00000
      28.59375	     384.48416	     304.49988	       0.00000	       0.00000
      28.71094	     557.31439	     422.19910	       0.00000	       0.00000
      28.82813	     440.90305	     400.32239	       0.00000	       0.00000
      28.94531	     446.19098	     341.21692	       0.00000	       0.00000
      29.06250	     461.07397	     377.61838	       0.00000	       0.00000
      29.17969	     570.81573	     453.38086	       0.00000	       0.00000
      29.29688	     449.98636	     355.03378	       0.00000	       0.00000
      29.41406	     387.53754	     316.62799	       0.00000	       0.00000
      29.53125	     620.32617	     461.35541	       0.00000	       0.00000
      29.64844	     664.67657	     502.45633	       0.00000	       0.00000
      29.76563	     393.19220	     318.93933	       0.00000	       0.00000

Monitor Diode	   6442.26
