ALV-7004 or ALV-7004/FAST Data
Date :	"04.06.2015"
Time :	"16:08:51"
Samplename : 	""
SampMemo(0) : 	""
SampMemo(1) : 	""
SampMemo(2) : 	""
SampMemo(3) : 	""
SampMemo(4) : 	""
SampMemo(5) : 	""
SampMemo(6) : 	""
SampMemo(7) : 	""
SampMemo(8) : 	""
SampMemo(9) : 	""
Temperature [K] :	     297.92125
Viscosity [cp]  :	       0.89000
Refractive Index:	       1.33200
Wavelength [nm] :	     632.80000
Angle [°]       :	      44.80000
Duration [s]    :	        33
Runs            :	         1
Mode            :	"C-CH0/1+1/0 "
MeanCR0 [kHz]   :	     397.87125
MeanCR1 [kHz]   :	     353.96991
MeanCR2 [kHz]   :	       0.00000
MeanCR3 [kHz]   :	       0.00000

"Correlation"
  2.50000E-005	  3.16952E-001	  3.18022E-001	  0.00000E+000	  0.00000E+000
  5.00000E-005	  3.20413E-001	  3.19535E-001	  0.00000E+000	  0.00000E+000
  7.50000E-005	  3.14698E-001	  3.09269E-001	  0.00000E+000	  0.00000E+000
  1.00000E-004	  3.13171E-001	  3.12971E-001	  0.00000E+000	  0.00000E+000
  1.25000E-004	  3.17096E-001	  3.19219E-001	  0.00000E+000	  0.00000E+000
  1.50000E-004	  3.16291E-001	  3.11939E-001	  0.00000E+000	  0.00000E+000
  1.75000E-004	  3.15032E-001	  3.16522E-001	  0.00000E+000	  0.00000E+000
  2.00000E-004	  3.11801E-001	  3.15524E-001	  0.00000E+000	  0.00000E+000
  2.25000E-004	  3.14244E-001	  3.11987E-001	  0.00000E+000	  0.00000E+000
  2.50000E-004	  3.10394E-001	  3.08155E-001	  0.00000E+000	  0.00000E+000
  2.75000E-004	  3.17058E-001	  3.18104E-001	  0.00000E+000	  0.00000E+000
  3.00000E-004	  3.19707E-001	  3.17251E-001	  0.00000E+000	  0.00000E+000
  3.25000E-004	  3.18369E-001	  3.22384E-001	  0.00000E+000	  0.00000E+000
  3.50000E-004	  3.13270E-001	  3.16797E-001	  0.00000E+000	  0.00000E+000
  3.75000E-004	  3.13484E-001	  3.13123E-001	  0.00000E+000	  0.00000E+000
  4.00000E-004	  3.14762E-001	  3.13645E-001	  0.00000E+000	  0.00000E+000
  4.50000E-004	  3.15077E-001	  3.13284E-001	  0.00000E+000	  0.00000E+000
  5.00000E-004	  3.16427E-001	  3.17702E-001	  0.00000E+000	  0.00000E+000
  5.50000E-004	  3.15127E-001	  3.14829E-001	  0.00000E+000	  0.00000E+000
  6.00000E-004	  3.16458E-001	  3.16848E-001	  0.00000E+000	  0.00000E+000
  6.50000E-004	  3.13879E-001	  3.12252E-001	  0.00000E+000	  0.00000E+000
  7.00000E-004	  3.14760E-001	  3.14251E-001	  0.00000E+000	  0.00000E+000
  7.50000E-004	  3.14323E-001	  3.13153E-001	  0.00000E+000	  0.00000E+000
  8.00000E-004	  3.16141E-001	  3.17105E-001	  0.00000E+000	  0.00000E+000
  9.00000E-004	  3.14690E-001	  3.14837E-001	  0.00000E+000	  0.00000E+000
  1.00000E-003	  3.15248E-001	  3.15187E-001	  0.00000E+000	  0.00000E+000
  1.10000E-003	  3.13309E-001	  3.14259E-001	  0.00000E+000	  0.00000E+000
  1.20000E-003	  3.15069E-001	  3.13477E-001	  0.00000E+000	  0.00000E+000
  1.30000E-003	  3.15780E-001	  3.17036E-001	  0.00000E+000	  0.00000E+000
  1.40000E-003	  3.15894E-001	  3.17432E-001	  0.00000E+000	  0.00000E+000
  1.50000E-003	  3.14115E-001	  3.15137E-001	  0.00000E+000	  0.00000E+000
  1.60000E-003	  3.14403E-001	  3.14236E-001	  0.00000E+000	  0.00000E+000
  1.80000E-003	  3.14386E-001	  3.13368E-001	  0.00000E+000	  0.00000E+000
  2.00000E-003	  3.14494E-001	  3.14870E-001	  0.00000E+000	  0.00000E+000
  2.20000E-003	  3.13967E-001	  3.13066E-001	  0.00000E+000	  0.00000E+000
  2.40000E-003	  3.15590E-001	  3.15200E-001	  0.00000E+000	  0.00000E+000
  2.60000E-003	  3.13862E-001	  3.14113E-001	  0.00000E+000	  0.00000E+000
  2.80000E-003	  3.14684E-001	  3.14985E-001	  0.00000E+000	  0.00000E+000
  3.00000E-003	  3.13319E-001	  3.13382E-001	  0.00000E+000	  0.00000E+000
  3.20000E-003	  3.14325E-001	  3.14897E-001	  0.00000E+000	  0.00000E+000
  3.60000E-003	  3.13893E-001	  3.13036E-001	  0.00000E+000	  0.00000E+000
  4.00000E-003	  3.14493E-001	  3.14277E-001	  0.00000E+000	  0.00000E+000
  4.40000E-003	  3.14117E-001	  3.14381E-001	  0.00000E+000	  0.00000E+000
  4.80000E-003	  3.14899E-001	  3.14305E-001	  0.00000E+000	  0.00000E+000
  5.20000E-003	  3.14130E-001	  3.13590E-001	  0.00000E+000	  0.00000E+000
  5.60000E-003	  3.13866E-001	  3.13510E-001	  0.00000E+000	  0.00000E+000
  6.00000E-003	  3.14169E-001	  3.14776E-001	  0.00000E+000	  0.00000E+000
  6.40000E-003	  3.14554E-001	  3.14809E-001	  0.00000E+000	  0.00000E+000
  7.20000E-003	  3.14531E-001	  3.14632E-001	  0.00000E+000	  0.00000E+000
  8.00000E-003	  3.13658E-001	  3.13734E-001	  0.00000E+000	  0.00000E+000
  8.80000E-003	  3.14152E-001	  3.14425E-001	  0.00000E+000	  0.00000E+000
  9.60000E-003	  3.14463E-001	  3.15353E-001	  0.00000E+000	  0.00000E+000
  1.04000E-002	  3.14236E-001	  3.13810E-001	  0.00000E+000	  0.00000E+000
  1.12000E-002	  3.14336E-001	  3.14044E-001	  0.00000E+000	  0.00000E+000
  1.20000E-002	  3.14502E-001	  3.15498E-001	  0.00000E+000	  0.00000E+000
  1.28000E-002	  3.14254E-001	  3.14529E-001	  0.00000E+000	  0.00000E+000
  1.44000E-002	  3.14271E-001	  3.14095E-001	  0.00000E+000	  0.00000E+000
  1.60000E-002	  3.13969E-001	  3.14326E-001	  0.00000E+000	  0.00000E+000
  1.76000E-002	  3.13719E-001	  3.13455E-001	  0.00000E+000	  0.00000E+000
  1.92000E-002	  3.13938E-001	  3.14291E-001	  0.00000E+000	  0.00000E+000
  2.08000E-002	  3.13885E-001	  3.13977E-001	  0.00000E+000	  0.00000E+000
  2.24000E-002	  3.13598E-001	  3.13557E-001	  0.00000E+000	  0.00000E+000
  2.40000E-002	  3.13501E-001	  3.13678E-001	  0.00000E+000	  0.00000E+000
  2.56000E-002	  3.13706E-001	  3.13996E-001	  0.00000E+000	  0.00000E+000
  2.88000E-002	  3.13461E-001	  3.13116E-001	  0.00000E+000	  0.00000E+000
  3.20000E-002	  3.13404E-001	  3.13314E-001	  0.00000E+000	  0.00000E+000
  3.52000E-002	  3.13522E-001	  3.13774E-001	  0.00000E+000	  0.00000E+000
  3.84000E-002	  3.12615E-001	  3.12553E-001	  0.00000E+000	  0.00000E+000
  4.16000E-002	  3.12638E-001	  3.12854E-001	  0.00000E+000	  0.00000E+000
  4.48000E-002	  3.12950E-001	  3.13013E-001	  0.00000E+000	  0.00000E+000
  4.80000E-002	  3.12515E-001	  3.12340E-001	  0.00000E+000	  0.00000E+000
  5.12000E-002	  3.12521E-001	  3.12468E-001	  0.00000E+000	  0.00000E+000
  5.76000E-002	  3.12440E-001	  3.12380E-001	  0.00000E+000	  0.00000E+000
  6.40000E-002	  3.12040E-001	  3.11877E-001	  0.00000E+000	  0.00000E+000
  7.04000E-002	  3.11997E-001	  3.12006E-001	  0.00000E+000	  0.00000E+000
  7.68000E-002	  3.11380E-001	  3.11470E-001	  0.00000E+000	  0.00000E+000
  8.32000E-002	  3.11139E-001	  3.11136E-001	  0.00000E+000	  0.00000E+000
  8.96000E-002	  3.11276E-001	  3.11492E-001	  0.00000E+000	  0.00000E+000
  9.60000E-002	  3.10759E-001	  3.10819E-001	  0.00000E+000	  0.00000E+000
  1.02400E-001	  3.10715E-001	  3.10777E-001	  0.00000E+000	  0.00000E+000
  1.15200E-001	  3.10262E-001	  3.10238E-001	  0.00000E+000	  0.00000E+000
  1.28000E-001	  3.09895E-001	  3.09945E-001	  0.00000E+000	  0.00000E+000
  1.40800E-001	  3.09379E-001	  3.09353E-001	  0.00000E+000	  0.00000E+000
  1.53600E-001	  3.08817E-001	  3.08736E-001	  0.00000E+000	  0.00000E+000
  1.66400E-001	  3.08260E-001	  3.08393E-001	  0.00000E+000	  0.00000E+000
  1.79200E-001	  3.07951E-001	  3.07712E-001	  0.00000E+000	  0.00000E+000
  1.92000E-001	  3.07286E-001	  3.07210E-001	  0.00000E+000	  0.00000E+000
  2.04800E-001	  3.06821E-001	  3.06755E-001	  0.00000E+000	  0.00000E+000
  2.30400E-001	  3.06035E-001	  3.05984E-001	  0.00000E+000	  0.00000E+000
  2.56000E-001	  3.05193E-001	  3.05140E-001	  0.00000E+000	  0.00000E+000
  2.81600E-001	  3.04212E-001	  3.04203E-001	  0.00000E+000	  0.00000E+000
  3.07200E-001	  3.03310E-001	  3.03194E-001	  0.00000E+000	  0.00000E+000
  3.32800E-001	  3.02416E-001	  3.02450E-001	  0.00000E+000	  0.00000E+000
  3.58400E-001	  3.01474E-001	  3.01356E-001	  0.00000E+000	  0.00000E+000
  3.84000E-001	  3.00720E-001	  3.00781E-001	  0.00000E+000	  0.00000E+000
  4.09600E-001	  2.99721E-001	  2.99705E-001	  0.00000E+000	  0.00000E+000
  4.60800E-001	  2.97944E-001	  2.97911E-001	  0.00000E+000	  0.00000E+000
  5.12000E-001	  2.96279E-001	  2.96094E-001	  0.00000E+000	  0.00000E+000
  5.63200E-001	  2.94566E-001	  2.94439E-001	  0.00000E+000	  0.00000E+000
  6.14400E-001	  2.92904E-001	  2.92847E-001	  0.00000E+000	  0.00000E+000
  6.65600E-001	  2.91140E-001	  2.91037E-001	  0.00000E+000	  0.00000E+000
  7.16800E-001	  2.89499E-001	  2.89507E-001	  0.00000E+000	  0.00000E+000
  7.68000E-001	  2.87817E-001	  2.87764E-001	  0.00000E+000	  0.00000E+000
  8.19200E-001	  2.86161E-001	  2.86140E-001	  0.00000E+000	  0.00000E+000
  9.21600E-001	  2.83030E-001	  2.82991E-001	  0.00000E+000	  0.00000E+000
  1.02400E+000	  2.79852E-001	  2.79831E-001	  0.00000E+000	  0.00000E+000
  1.12640E+000	  2.76655E-001	  2.76633E-001	  0.00000E+000	  0.00000E+000
  1.22880E+000	  2.73602E-001	  2.73603E-001	  0.00000E+000	  0.00000E+000
  1.33120E+000	  2.70546E-001	  2.70563E-001	  0.00000E+000	  0.00000E+000
  1.43360E+000	  2.67502E-001	  2.67482E-001	  0.00000E+000	  0.00000E+000
  1.53600E+000	  2.64457E-001	  2.64450E-001	  0.00000E+000	  0.00000E+000
  1.63840E+000	  2.61597E-001	  2.61611E-001	  0.00000E+000	  0.00000E+000
  1.84320E+000	  2.55928E-001	  2.55807E-001	  0.00000E+000	  0.00000E+000
  2.04800E+000	  2.50376E-001	  2.50322E-001	  0.00000E+000	  0.00000E+000
  2.25280E+000	  2.44993E-001	  2.44975E-001	  0.00000E+000	  0.00000E+000
  2.45760E+000	  2.39676E-001	  2.39712E-001	  0.00000E+000	  0.00000E+000
  2.66240E+000	  2.34510E-001	  2.34489E-001	  0.00000E+000	  0.00000E+000
  2.86720E+000	  2.29506E-001	  2.29468E-001	  0.00000E+000	  0.00000E+000
  3.07200E+000	  2.24656E-001	  2.24603E-001	  0.00000E+000	  0.00000E+000
  3.27680E+000	  2.19881E-001	  2.19823E-001	  0.00000E+000	  0.00000E+000
  3.68640E+000	  2.10826E-001	  2.10721E-001	  0.00000E+000	  0.00000E+000
  4.09600E+000	  2.02175E-001	  2.02128E-001	  0.00000E+000	  0.00000E+000
  4.50560E+000	  1.94199E-001	  1.94217E-001	  0.00000E+000	  0.00000E+000
  4.91520E+000	  1.86678E-001	  1.86853E-001	  0.00000E+000	  0.00000E+000
  5.32480E+000	  1.79501E-001	  1.79706E-001	  0.00000E+000	  0.00000E+000
  5.73440E+000	  1.72713E-001	  1.73014E-001	  0.00000E+000	  0.00000E+000
  6.14400E+000	  1.66310E-001	  1.66787E-001	  0.00000E+000	  0.00000E+000
  6.55360E+000	  1.60165E-001	  1.60793E-001	  0.00000E+000	  0.00000E+000
  7.37280E+000	  1.48454E-001	  1.49133E-001	  0.00000E+000	  0.00000E+000
  8.19200E+000	  1.37779E-001	  1.38493E-001	  0.00000E+000	  0.00000E+000
  9.01120E+000	  1.28161E-001	  1.28826E-001	  0.00000E+000	  0.00000E+000
  9.83040E+000	  1.19467E-001	  1.20060E-001	  0.00000E+000	  0.00000E+000
  1.06496E+001	  1.11669E-001	  1.12358E-001	  0.00000E+000	  0.00000E+000
  1.14688E+001	  1.04558E-001	  1.05353E-001	  0.00000E+000	  0.00000E+000
  1.22880E+001	  9.84304E-002	  9.90788E-002	  0.00000E+000	  0.00000E+000
  1.31072E+001	  9.30338E-002	  9.37231E-002	  0.00000E+000	  0.00000E+000
  1.47456E+001	  8.32781E-002	  8.39225E-002	  0.00000E+000	  0.00000E+000
  1.63840E+001	  7.45329E-002	  7.51501E-002	  0.00000E+000	  0.00000E+000
  1.80224E+001	  6.60753E-002	  6.67897E-002	  0.00000E+000	  0.00000E+000
  1.96608E+001	  5.91721E-002	  6.00798E-002	  0.00000E+000	  0.00000E+000
  2.12992E+001	  5.24843E-002	  5.35627E-002	  0.00000E+000	  0.00000E+000
  2.29376E+001	  4.65024E-002	  4.80348E-002	  0.00000E+000	  0.00000E+000
  2.45760E+001	  4.17551E-002	  4.36730E-002	  0.00000E+000	  0.00000E+000
  2.62144E+001	  3.70488E-002	  3.93311E-002	  0.00000E+000	  0.00000E+000
  2.94912E+001	  2.81698E-002	  3.08533E-002	  0.00000E+000	  0.00000E+000
  3.27680E+001	  1.94904E-002	  2.22913E-002	  0.00000E+000	  0.00000E+000
  3.60448E+001	  1.43179E-002	  1.68076E-002	  0.00000E+000	  0.00000E+000
  3.93216E+001	  1.19067E-002	  1.41353E-002	  0.00000E+000	  0.00000E+000
  4.25984E+001	  1.10898E-002	  1.36072E-002	  0.00000E+000	  0.00000E+000
  4.58752E+001	  1.01688E-002	  1.31939E-002	  0.00000E+000	  0.00000E+000
  4.91520E+001	  8.82011E-003	  1.16826E-002	  0.00000E+000	  0.00000E+000
  5.24288E+001	  7.90807E-003	  1.00801E-002	  0.00000E+000	  0.00000E+000
  5.89824E+001	  6.16682E-003	  8.17357E-003	  0.00000E+000	  0.00000E+000
  6.55360E+001	  5.63106E-003	  7.80971E-003	  0.00000E+000	  0.00000E+000
  7.20896E+001	  5.45669E-003	  5.84395E-003	  0.00000E+000	  0.00000E+000
  7.86432E+001	  4.09780E-003	  2.26126E-003	  0.00000E+000	  0.00000E+000
  8.51968E+001	  4.96014E-003	  2.32773E-003	  0.00000E+000	  0.00000E+000
  9.17504E+001	  3.90982E-003	  1.05158E-003	  0.00000E+000	  0.00000E+000
  9.83040E+001	  6.52920E-003	  2.86657E-003	  0.00000E+000	  0.00000E+000
  1.04858E+002	  4.11174E-003	  6.76539E-004	  0.00000E+000	  0.00000E+000
  1.17965E+002	 -2.71141E-004	 -3.15516E-003	  0.00000E+000	  0.00000E+000
  1.31072E+002	 -7.99154E-003	 -8.47540E-003	  0.00000E+000	  0.00000E+000
  1.44179E+002	 -1.33322E-002	 -1.18900E-002	  0.00000E+000	  0.00000E+000
  1.57286E+002	 -1.06766E-002	 -9.37780E-003	  0.00000E+000	  0.00000E+000
  1.70394E+002	 -4.22677E-003	 -2.82216E-003	  0.00000E+000	  0.00000E+000
  1.83501E+002	 -1.05683E-002	 -1.04274E-002	  0.00000E+000	  0.00000E+000
  1.96608E+002	 -1.25866E-002	 -1.31601E-002	  0.00000E+000	  0.00000E+000
  2.09715E+002	 -7.62205E-003	 -6.95161E-003	  0.00000E+000	  0.00000E+000
  2.35930E+002	  3.47643E-003	  4.52826E-003	  0.00000E+000	  0.00000E+000
  2.62144E+002	 -5.90335E-003	 -7.63460E-003	  0.00000E+000	  0.00000E+000
  2.88358E+002	 -3.36022E-003	 -5.01469E-003	  0.00000E+000	  0.00000E+000
  3.14573E+002	 -6.27366E-003	 -8.54565E-003	  0.00000E+000	  0.00000E+000
  3.40787E+002	 -1.05381E-003	 -3.43870E-003	  0.00000E+000	  0.00000E+000
  3.67002E+002	 -5.57053E-003	 -7.92035E-003	  0.00000E+000	  0.00000E+000
  3.93216E+002	 -4.25203E-003	 -5.16312E-003	  0.00000E+000	  0.00000E+000
  4.19430E+002	  2.03036E-004	 -1.24111E-003	  0.00000E+000	  0.00000E+000
  4.71859E+002	  2.44809E-003	  5.62592E-003	  0.00000E+000	  0.00000E+000
  5.24288E+002	  1.71632E-003	  9.81345E-004	  0.00000E+000	  0.00000E+000
  5.76717E+002	  2.74663E-004	  1.56003E-003	  0.00000E+000	  0.00000E+000
  6.29146E+002	 -6.59575E-003	 -8.24923E-003	  0.00000E+000	  0.00000E+000
  6.81574E+002	 -3.24474E-003	 -4.53035E-003	  0.00000E+000	  0.00000E+000
  7.34003E+002	 -2.37386E-004	 -1.44608E-003	  0.00000E+000	  0.00000E+000
  7.86432E+002	 -4.48834E-003	 -6.00696E-003	  0.00000E+000	  0.00000E+000
  8.38861E+002	  7.22863E-004	 -6.36397E-004	  0.00000E+000	  0.00000E+000
  9.43718E+002	  8.11600E-003	  9.45452E-003	  0.00000E+000	  0.00000E+000
  1.04858E+003	 -8.13323E-004	 -1.05123E-003	  0.00000E+000	  0.00000E+000
  1.15343E+003	 -5.31542E-003	 -4.08664E-003	  0.00000E+000	  0.00000E+000
  1.25829E+003	  6.07781E-003	  7.34116E-003	  0.00000E+000	  0.00000E+000
  1.36315E+003	  4.33507E-003	  5.02832E-003	  0.00000E+000	  0.00000E+000
  1.46801E+003	  3.67723E-003	  3.66985E-003	  0.00000E+000	  0.00000E+000
  1.57286E+003	 -4.71793E-003	 -3.28527E-003	  0.00000E+000	  0.00000E+000
  1.67772E+003	 -6.52450E-004	  6.13247E-004	  0.00000E+000	  0.00000E+000
  1.88744E+003	 -3.50917E-003	 -3.61749E-003	  0.00000E+000	  0.00000E+000
  2.09715E+003	  2.37176E-003	  3.48253E-003	  0.00000E+000	  0.00000E+000
  2.30687E+003	 -1.23504E-003	 -5.39955E-005	  0.00000E+000	  0.00000E+000
  2.51658E+003	  5.89527E-003	  6.08411E-003	  0.00000E+000	  0.00000E+000
  2.72630E+003	  2.28007E-003	  2.47566E-003	  0.00000E+000	  0.00000E+000
  2.93601E+003	 -2.42425E-003	 -1.48198E-003	  0.00000E+000	  0.00000E+000
  3.14573E+003	  6.59351E-004	  8.19395E-004	  0.00000E+000	  0.00000E+000
  3.35544E+003	  3.16468E-004	 -9.02385E-005	  0.00000E+000	  0.00000E+000
  3.77487E+003	 -1.96809E-003	 -1.61096E-003	  0.00000E+000	  0.00000E+000
  4.19430E+003	 -1.57277E-003	 -1.47707E-003	  0.00000E+000	  0.00000E+000
  4.61373E+003	  6.46632E-004	  1.57180E-003	  0.00000E+000	  0.00000E+000
  5.03317E+003	  1.50304E-003	  1.48856E-003	  0.00000E+000	  0.00000E+000
  5.45260E+003	  2.40338E-003	  3.17407E-003	  0.00000E+000	  0.00000E+000
  5.87203E+003	 -1.59365E-003	 -2.48358E-003	  0.00000E+000	  0.00000E+000

"Count Rate"
       0.12891	     547.05341	     520.56445	       0.00000	       0.00000
       0.25781	     434.40356	     361.08768	       0.00000	       0.00000
       0.38672	     422.55139	     343.70502	       0.00000	       0.00000
       0.51563	     295.10184	     237.77242	       0.00000	       0.00000
       0.64453	     486.52051	     367.02927	       0.00000	       0.00000
       0.77344	     506.06726	     449.59885	       0.00000	       0.00000
       0.90234	     382.37192	     322.84738	       0.00000	       0.00000
       1.03125	     431.96796	     347.87811	       0.00000	       0.00000
       1.16016	     340.54807	     251.77318	       0.00000	       0.00000
       1.28906	     392.66501	     312.32159	       0.00000	       0.00000
       1.41797	     424.78531	     326.68692	       0.00000	       0.00000
       1.54688	     311.48389	     230.48117	       0.00000	       0.00000
       1.67578	     517.29114	     438.39822	       0.00000	       0.00000
       1.80469	     334.27292	     249.68663	       0.00000	       0.00000
       1.93359	     532.58728	     453.40735	       0.00000	       0.00000
       2.06250	     506.54044	     330.25497	       0.00000	       0.00000
       2.19141	     459.55838	     342.91385	       0.00000	       0.00000
       2.32031	     372.86227	     291.47949	       0.00000	       0.00000
       2.44922	     608.25342	     549.38043	       0.00000	       0.00000
       2.57813	     356.98441	     309.79294	       0.00000	       0.00000
       2.70703	     361.26608	     274.63980	       0.00000	       0.00000
       2.83594	     369.39505	     275.79553	       0.00000	       0.00000
       2.96484	     647.40125	     664.78387	       0.00000	       0.00000
       3.09375	     431.36295	     330.65057	       0.00000	       0.00000
       3.22266	     655.96460	     497.45740	       0.00000	       0.00000
       3.35156	     357.51187	     289.61789	       0.00000	       0.00000
       3.48047	     438.12674	     375.35217	       0.00000	       0.00000
       3.60938	     445.04568	     327.70303	       0.00000	       0.00000
       3.73828	     362.63126	     253.67355	       0.00000	       0.00000
       3.86719	     365.63309	     295.55173	       0.00000	       0.00000
       3.99609	     677.64441	     456.97540	       0.00000	       0.00000
       4.12500	     450.66925	     335.97165	       0.00000	       0.00000
       4.25391	     510.47305	     456.92886	       0.00000	       0.00000
       4.38281	     467.39261	     337.83322	       0.00000	       0.00000
       4.51172	     386.56827	     250.94322	       0.00000	       0.00000
       4.64063	     300.08160	     262.46960	       0.00000	       0.00000
       4.76953	     429.33072	     353.97482	       0.00000	       0.00000
       4.89844	     418.41708	     371.23337	       0.00000	       0.00000
       5.02734	     623.20825	     509.42590	       0.00000	       0.00000
       5.15625	     364.35324	     305.92236	       0.00000	       0.00000
       5.28516	     286.28253	     212.41592	       0.00000	       0.00000
       5.41406	     595.72644	     473.36523	       0.00000	       0.00000
       5.54297	     799.65656	     667.97961	       0.00000	       0.00000
       5.67188	     410.21057	     353.47839	       0.00000	       0.00000
       5.80078	     457.07626	     414.80249	       0.00000	       0.00000
       5.92969	     471.48035	     370.33362	       0.00000	       0.00000
       6.05859	     410.00113	     360.68433	       0.00000	       0.00000
       6.18750	     348.79340	     281.02350	       0.00000	       0.00000
       6.31641	     406.54941	     364.00418	       0.00000	       0.00000
       6.44531	     404.87399	     383.42685	       0.00000	       0.00000
       6.57422	     581.90405	     496.56537	       0.00000	       0.00000
       6.70313	     462.59900	     336.89468	       0.00000	       0.00000
       6.83203	     623.88306	     494.23837	       0.00000	       0.00000
       6.96094	     527.17310	     458.75943	       0.00000	       0.00000
       7.08984	     328.95963	     268.26382	       0.00000	       0.00000
       7.21875	     410.17953	     305.60434	       0.00000	       0.00000
       7.34766	     317.56509	     301.22183	       0.00000	       0.00000
       7.47656	     592.42981	     481.07535	       0.00000	       0.00000
       7.60547	     472.84552	     364.22913	       0.00000	       0.00000
       7.73438	     417.11398	     398.80829	       0.00000	       0.00000
       7.86328	     646.17566	     503.91867	       0.00000	       0.00000
       7.99219	     436.18759	     333.05515	       0.00000	       0.00000
       8.12109	     736.98279	     596.49432	       0.00000	       0.00000
       8.25000	     608.60248	     441.23715	       0.00000	       0.00000
       8.37891	     576.63727	     469.10681	       0.00000	       0.00000
       8.50781	     366.88190	     307.12463	       0.00000	       0.00000
       8.63672	     532.56396	     409.76068	       0.00000	       0.00000
       8.76563	     293.35660	     234.21988	       0.00000	       0.00000
       8.89453	     385.56769	     262.95828	       0.00000	       0.00000
       9.02344	     433.70544	     307.30304	       0.00000	       0.00000
       9.15234	     519.90515	     434.74484	       0.00000	       0.00000
       9.28125	     406.46408	     332.32602	       0.00000	       0.00000
       9.41016	     585.42560	     430.16843	       0.00000	       0.00000
       9.53906	     586.60461	     529.88019	       0.00000	       0.00000
       9.66797	     404.13708	     343.01468	       0.00000	       0.00000
       9.79688	     343.48007	     280.79080	       0.00000	       0.00000
       9.92578	     478.36050	     340.29208	       0.00000	       0.00000
      10.05469	     463.37466	     362.24341	       0.00000	       0.00000
      10.18359	     674.27802	     461.02438	       0.00000	       0.00000
      10.31250	     494.99854	     328.06760	       0.00000	       0.00000
      10.44141	     570.42419	     546.88275	       0.00000	       0.00000
      10.57031	     344.48843	     282.90839	       0.00000	       0.00000
      10.69922	     370.96188	     251.88177	       0.00000	       0.00000
      10.82813	     372.35034	     317.23932	       0.00000	       0.00000
      10.95703	     481.14514	     430.73465	       0.00000	       0.00000
      11.08594	     383.18637	     303.95993	       0.00000	       0.00000
      11.21484	     524.14801	     416.90454	       0.00000	       0.00000
      11.34375	     410.60614	     326.40768	       0.00000	       0.00000
      11.47266	     568.64020	     528.43744	       0.00000	       0.00000
      11.60156	     440.09692	     319.34912	       0.00000	       0.00000
      11.73047	     372.49771	     259.35144	       0.00000	       0.00000
      11.85938	     808.34399	     699.66553	       0.00000	       0.00000
      11.98828	     457.37875	     397.63702	       0.00000	       0.00000
      12.11719	     406.04523	     304.40982	       0.00000	       0.00000
      12.24609	     466.77206	     332.31827	       0.00000	       0.00000
      12.37500	     635.06042	     485.74484	       0.00000	       0.00000
      12.50391	     441.90424	     377.60934	       0.00000	       0.00000
      12.63281	     495.34756	     359.46655	       0.00000	       0.00000
      12.76172	     530.01984	     461.25708	       0.00000	       0.00000
      12.89063	     684.39270	     530.03534	       0.00000	       0.00000
      13.01953	     376.06577	     320.39627	       0.00000	       0.00000
      13.14844	     581.53174	     401.13528	       0.00000	       0.00000
      13.27734	     266.81332	     211.44633	       0.00000	       0.00000
      13.40625	     632.63257	     479.26028	       0.00000	       0.00000
      13.53516	     623.87531	     549.32611	       0.00000	       0.00000
      13.66406	     569.97430	     534.85999	       0.00000	       0.00000
      13.79297	     470.40219	     356.27078	       0.00000	       0.00000
      13.92188	     477.15045	     387.94122	       0.00000	       0.00000
      14.05078	     380.95245	     314.54776	       0.00000	       0.00000
      14.17969	     371.03946	     268.59735	       0.00000	       0.00000
      14.30859	     385.32721	     380.73529	       0.00000	       0.00000
      14.43750	     616.14966	     432.09207	       0.00000	       0.00000
      14.56641	     632.65582	     428.72568	       0.00000	       0.00000
      14.69531	     410.91641	     343.21634	       0.00000	       0.00000
      14.82422	     479.12842	     360.34305	       0.00000	       0.00000
      14.95313	     412.66165	     352.40799	       0.00000	       0.00000
      15.08203	     507.43243	     400.94913	       0.00000	       0.00000
      15.21094	     399.94073	     271.43628	       0.00000	       0.00000
      15.33984	     607.63287	     436.04797	       0.00000	       0.00000
      15.46875	     502.15793	     433.11597	       0.00000	       0.00000
      15.59766	     435.48172	     373.31216	       0.00000	       0.00000
      15.72656	     488.21921	     379.23825	       0.00000	       0.00000
      15.85547	     394.26288	     352.91217	       0.00000	       0.00000
      15.98438	     466.74881	     440.51581	       0.00000	       0.00000
      16.11328	     511.24872	     379.32358	       0.00000	       0.00000
      16.24219	     338.36069	     266.28589	       0.00000	       0.00000
      16.37109	     452.25937	     294.28738	       0.00000	       0.00000
      16.50000	     261.65515	     201.27737	       0.00000	       0.00000
      16.62891	     474.76141	     420.56567	       0.00000	       0.00000
      16.75781	     478.03473	     400.60782	       0.00000	       0.00000
      16.88672	     741.26447	     710.22235	       0.00000	       0.00000
      17.01563	     544.34637	     387.62320	       0.00000	       0.00000
      17.14453	     455.99808	     404.71884	       0.00000	       0.00000
      17.27344	     662.06128	     446.78317	       0.00000	       0.00000
      17.40234	     592.96503	     486.73770	       0.00000	       0.00000
      17.53125	     443.88217	     340.41620	       0.00000	       0.00000
      17.66016	     529.46912	     364.98929	       0.00000	       0.00000
      17.78906	     702.80701	     468.21481	       0.00000	       0.00000
      17.91797	     399.08752	     281.31052	       0.00000	       0.00000
      18.04688	     290.85895	     216.51143	       0.00000	       0.00000
      18.17578	     761.36194	     737.90582	       0.00000	       0.00000
      18.30469	     538.38922	     421.85330	       0.00000	       0.00000
      18.43359	     424.54486	     308.34244	       0.00000	       0.00000
      18.56250	     390.91977	     348.43658	       0.00000	       0.00000
      18.69141	     526.73877	     425.47565	       0.00000	       0.00000
      18.82031	     393.35535	     289.95142	       0.00000	       0.00000
      18.94922	     588.73767	     494.80460	       0.00000	       0.00000
      19.07813	     458.06134	     408.28690	       0.00000	       0.00000
      19.20703	     360.05603	     348.83215	       0.00000	       0.00000
      19.33594	     429.19885	     339.71811	       0.00000	       0.00000
      19.46484	     341.95203	     270.96313	       0.00000	       0.00000
      19.59375	     830.41943	     707.22827	       0.00000	       0.00000
      19.72266	     375.46075	     273.22031	       0.00000	       0.00000
      19.85156	     676.80670	     557.66449	       0.00000	       0.00000
      19.98047	     517.65570	     412.01785	       0.00000	       0.00000
      20.10938	     334.83917	     275.29135	       0.00000	       0.00000
      20.23828	     642.33612	     493.16797	       0.00000	       0.00000
      20.36719	     385.55991	     319.09317	       0.00000	       0.00000
      20.49609	     664.16333	     599.31000	       0.00000	       0.00000
      20.62500	     527.38257	     460.69086	       0.00000	       0.00000
      20.75391	     488.51398	     391.58682	       0.00000	       0.00000
      20.88281	     460.19443	     355.65027	       0.00000	       0.00000
      21.01172	     363.19748	     293.86853	       0.00000	       0.00000
      21.14063	     613.65979	     480.64871	       0.00000	       0.00000
      21.26953	     534.36353	     426.91064	       0.00000	       0.00000
      21.39844	     353.40860	     281.94656	       0.00000	       0.00000
      21.52734	     274.51569	     214.82825	       0.00000	       0.00000
      21.65625	     277.23050	     211.26794	       0.00000	       0.00000
      21.78516	     558.80475	     519.36993	       0.00000	       0.00000
      21.91406	     559.23914	     507.82803	       0.00000	       0.00000
      22.04297	     513.91699	     457.97601	       0.00000	       0.00000
      22.17188	     416.54773	     291.58032	       0.00000	       0.00000
      22.30078	     380.26212	     394.03018	       0.00000	       0.00000
      22.42969	     517.41522	     533.20776	       0.00000	       0.00000
      22.55859	     401.54639	     323.10336	       0.00000	       0.00000
      22.68750	     350.13528	     290.27719	       0.00000	       0.00000
      22.81641	     494.86667	     424.31992	       0.00000	       0.00000
      22.94531	     441.50864	     397.18713	       0.00000	       0.00000
      23.07422	     516.02679	     440.20554	       0.00000	       0.00000
      23.20313	     450.95624	     376.56219	       0.00000	       0.00000
      23.33203	     459.22485	     396.49680	       0.00000	       0.00000
      23.46094	     466.74103	     383.24844	       0.00000	       0.00000
      23.58984	     334.52115	     277.27704	       0.00000	       0.00000
      23.71875	     428.50073	     318.57346	       0.00000	       0.00000
      23.84766	     306.73682	     281.17865	       0.00000	       0.00000
      23.97656	     312.50000	     201.92117	       0.00000	       0.00000
      24.10547	     379.55627	     303.68069	       0.00000	       0.00000
      24.23438	     485.31046	     371.29544	       0.00000	       0.00000
      24.36328	     429.89694	     364.74881	       0.00000	       0.00000
      24.49219	     440.72522	     334.14883	       0.00000	       0.00000
      24.62109	     396.14774	     313.85742	       0.00000	       0.00000
      24.75000	     478.58545	     373.28888	       0.00000	       0.00000
      24.87891	     442.02060	     371.31870	       0.00000	       0.00000
      25.00781	     489.19653	     456.30835	       0.00000	       0.00000
      25.13672	     459.54288	     362.18137	       0.00000	       0.00000
      25.26563	     307.98563	     228.73592	       0.00000	       0.00000
      25.39453	     434.15533	     376.88022	       0.00000	       0.00000
      25.52344	     540.21204	     378.62546	       0.00000	       0.00000
      25.65234	     684.16003	     504.70209	       0.00000	       0.00000
      25.78125	     334.28845	     259.65393	       0.00000	       0.00000
      25.91016	     586.45721	     419.24707	       0.00000	       0.00000
      26.03906	     559.73553	     472.06210	       0.00000	       0.00000
      26.16797	     585.77460	     433.36417	       0.00000	       0.00000
      26.29688	     453.39960	     338.15903	       0.00000	       0.00000
      26.42578	     593.11243	     433.55807	       0.00000	       0.00000
      26.55469	     428.64813	     322.99475	       0.00000	       0.00000
      26.68359	     300.50046	     248.81013	       0.00000	       0.00000
      26.81250	     375.70120	     346.01651	       0.00000	       0.00000
      26.94141	     424.86288	     342.13043	       0.00000	       0.00000
      27.07031	     450.59167	     438.82486	       0.00000	       0.00000
      27.19922	     390.53192	     302.24573	       0.00000	       0.00000
      27.32813	     642.00262	     694.70905	       0.00000	       0.00000
      27.45703	     454.04340	     418.71185	       0.00000	       0.00000
      27.58594	     447.77603	     364.74106	       0.00000	       0.00000
      27.71484	     436.00919	     325.22092	       0.00000	       0.00000
      27.84375	     337.63931	     305.83704	       0.00000	       0.00000
      27.97266	     479.32233	     378.59445	       0.00000	       0.00000
      28.10156	     333.26456	     258.64557	       0.00000	       0.00000
      28.23047	     538.72278	     499.01648	       0.00000	       0.00000
      28.35938	     352.55536	     296.67645	       0.00000	       0.00000
      28.48828	     380.54913	     334.00922	       0.00000	       0.00000
      28.61719	     621.40869	     499.79214	       0.00000	       0.00000
      28.74609	     400.46045	     366.14502	       0.00000	       0.00000
      28.87500	     416.20645	     304.27020	       0.00000	       0.00000
      29.00391	     439.49966	     331.13150	       0.00000	       0.00000
      29.13281	     645.65601	     534.53418	       0.00000	       0.00000
      29.26172	     324.04190	     237.89653	       0.00000	       0.00000
      29.39063	     486.12491	     348.20389	       0.00000	       0.00000
      29.51953	     555.64001	     470.34012	       0.00000	       0.00000
      29.64844	     321.09439	     253.51842	       0.00000	       0.00000
      29.77734	     713.75940	     515.00293	       0.00000	       0.00000
      29.90625	     410.69147	     359.64493	       0.00000	       0.00000
      30.03516	     338.11249	     256.77621	       0.00000	       0.00000
      30.16406	     383.34927	     314.96661	       0.00000	       0.00000
      30.29297	     410.52081	     345.10898	       0.00000	       0.00000
      30.42188	     597.10712	     520.71960	       0.00000	       0.00000
      30.55078	     405.49451	     319.69818	       0.00000	       0.00000
      30.67969	     391.40845	     335.08737	       0.00000	       0.00000
      30.80859	     552.62268	     406.26242	       0.00000	       0.00000
      30.93750	     505.19852	     369.69757	       0.00000	       0.00000
      31.06641	     408.54288	     378.05148	       0.00000	       0.00000
      31.19531	     571.19214	     367.21542	       0.00000	       0.00000
      31.32422	     498.72946	     365.78821	       0.00000	       0.00000
      31.45313	     559.78986	     485.67502	       0.00000	       0.00000
      31.58203	     371.88495	     275.33014	       0.00000	       0.00000
      31.71094	     428.61710	     347.88586	       0.00000	       0.00000
      31.83984	     397.52844	     302.33881	       0.00000	       0.00000
      31.96875	     351.56250	     278.56467	       0.00000	       0.00000
      32.09766	     397.94730	     321.41241	       0.00000	       0.00000
      32.22656	     531.86591	     444.39413	       0.00000	       0.00000
      32.35547	     431.30865	     361.49878	       0.00000	       0.00000
      32.48438	     387.26639	     279.82898	       0.00000	       0.00000
      32.61328	     494.40903	     388.80997	       0.00000	       0.00000
      32.74219	     445.93768	     413.60797	       0.00000	       0.00000

Monitor Diode	   2994.19
