ALV-7004 or ALV-7004/FAST Data
Date :	"04.06.2015"
Time :	"15:53:56"
Samplename : 	""
SampMemo(0) : 	""
SampMemo(1) : 	""
SampMemo(2) : 	""
SampMemo(3) : 	""
SampMemo(4) : 	""
SampMemo(5) : 	""
SampMemo(6) : 	""
SampMemo(7) : 	""
SampMemo(8) : 	""
SampMemo(9) : 	""
Temperature [K] :	     297.92420
Viscosity [cp]  :	       0.89000
Refractive Index:	       1.33200
Wavelength [nm] :	     632.80000
Angle [°]       :	      21.70000
Duration [s]    :	        40
Runs            :	         1
Mode            :	"C-CH0/1+1/0 "
MeanCR0 [kHz]   :	    1615.68713
MeanCR1 [kHz]   :	    1204.52307
MeanCR2 [kHz]   :	       0.00000
MeanCR3 [kHz]   :	       0.00000

"Correlation"
  2.50000E-005	  2.10069E-001	  2.09659E-001	  0.00000E+000	  0.00000E+000
  5.00000E-005	  2.10657E-001	  2.10875E-001	  0.00000E+000	  0.00000E+000
  7.50000E-005	  2.10367E-001	  2.10132E-001	  0.00000E+000	  0.00000E+000
  1.00000E-004	  2.10587E-001	  2.10485E-001	  0.00000E+000	  0.00000E+000
  1.25000E-004	  2.09938E-001	  2.10256E-001	  0.00000E+000	  0.00000E+000
  1.50000E-004	  2.10930E-001	  2.10236E-001	  0.00000E+000	  0.00000E+000
  1.75000E-004	  2.10202E-001	  2.10251E-001	  0.00000E+000	  0.00000E+000
  2.00000E-004	  2.10398E-001	  2.10185E-001	  0.00000E+000	  0.00000E+000
  2.25000E-004	  2.10179E-001	  2.10238E-001	  0.00000E+000	  0.00000E+000
  2.50000E-004	  2.10590E-001	  2.11099E-001	  0.00000E+000	  0.00000E+000
  2.75000E-004	  2.10938E-001	  2.10476E-001	  0.00000E+000	  0.00000E+000
  3.00000E-004	  2.10163E-001	  2.10065E-001	  0.00000E+000	  0.00000E+000
  3.25000E-004	  2.10844E-001	  2.10537E-001	  0.00000E+000	  0.00000E+000
  3.50000E-004	  2.10353E-001	  2.10726E-001	  0.00000E+000	  0.00000E+000
  3.75000E-004	  2.10611E-001	  2.10135E-001	  0.00000E+000	  0.00000E+000
  4.00000E-004	  2.10649E-001	  2.10691E-001	  0.00000E+000	  0.00000E+000
  4.50000E-004	  2.09942E-001	  2.09840E-001	  0.00000E+000	  0.00000E+000
  5.00000E-004	  2.10883E-001	  2.10894E-001	  0.00000E+000	  0.00000E+000
  5.50000E-004	  2.09969E-001	  2.09716E-001	  0.00000E+000	  0.00000E+000
  6.00000E-004	  2.10252E-001	  2.10262E-001	  0.00000E+000	  0.00000E+000
  6.50000E-004	  2.10797E-001	  2.10386E-001	  0.00000E+000	  0.00000E+000
  7.00000E-004	  2.10729E-001	  2.10457E-001	  0.00000E+000	  0.00000E+000
  7.50000E-004	  2.10397E-001	  2.10287E-001	  0.00000E+000	  0.00000E+000
  8.00000E-004	  2.10701E-001	  2.10599E-001	  0.00000E+000	  0.00000E+000
  9.00000E-004	  2.10510E-001	  2.10790E-001	  0.00000E+000	  0.00000E+000
  1.00000E-003	  2.10328E-001	  2.10134E-001	  0.00000E+000	  0.00000E+000
  1.10000E-003	  2.10447E-001	  2.10925E-001	  0.00000E+000	  0.00000E+000
  1.20000E-003	  2.10503E-001	  2.10442E-001	  0.00000E+000	  0.00000E+000
  1.30000E-003	  2.10416E-001	  2.10429E-001	  0.00000E+000	  0.00000E+000
  1.40000E-003	  2.10349E-001	  2.10436E-001	  0.00000E+000	  0.00000E+000
  1.50000E-003	  2.10741E-001	  2.10664E-001	  0.00000E+000	  0.00000E+000
  1.60000E-003	  2.10554E-001	  2.10588E-001	  0.00000E+000	  0.00000E+000
  1.80000E-003	  2.10459E-001	  2.10261E-001	  0.00000E+000	  0.00000E+000
  2.00000E-003	  2.10412E-001	  2.10366E-001	  0.00000E+000	  0.00000E+000
  2.20000E-003	  2.10287E-001	  2.10406E-001	  0.00000E+000	  0.00000E+000
  2.40000E-003	  2.10425E-001	  2.10393E-001	  0.00000E+000	  0.00000E+000
  2.60000E-003	  2.10492E-001	  2.10394E-001	  0.00000E+000	  0.00000E+000
  2.80000E-003	  2.10387E-001	  2.10535E-001	  0.00000E+000	  0.00000E+000
  3.00000E-003	  2.10428E-001	  2.10512E-001	  0.00000E+000	  0.00000E+000
  3.20000E-003	  2.10479E-001	  2.10467E-001	  0.00000E+000	  0.00000E+000
  3.60000E-003	  2.10463E-001	  2.10518E-001	  0.00000E+000	  0.00000E+000
  4.00000E-003	  2.10599E-001	  2.10656E-001	  0.00000E+000	  0.00000E+000
  4.40000E-003	  2.10526E-001	  2.10509E-001	  0.00000E+000	  0.00000E+000
  4.80000E-003	  2.10434E-001	  2.10431E-001	  0.00000E+000	  0.00000E+000
  5.20000E-003	  2.10391E-001	  2.10359E-001	  0.00000E+000	  0.00000E+000
  5.60000E-003	  2.10464E-001	  2.10333E-001	  0.00000E+000	  0.00000E+000
  6.00000E-003	  2.10465E-001	  2.10427E-001	  0.00000E+000	  0.00000E+000
  6.40000E-003	  2.10411E-001	  2.10435E-001	  0.00000E+000	  0.00000E+000
  7.20000E-003	  2.10502E-001	  2.10520E-001	  0.00000E+000	  0.00000E+000
  8.00000E-003	  2.10490E-001	  2.10492E-001	  0.00000E+000	  0.00000E+000
  8.80000E-003	  2.10385E-001	  2.10311E-001	  0.00000E+000	  0.00000E+000
  9.60000E-003	  2.10388E-001	  2.10392E-001	  0.00000E+000	  0.00000E+000
  1.04000E-002	  2.10376E-001	  2.10352E-001	  0.00000E+000	  0.00000E+000
  1.12000E-002	  2.10400E-001	  2.10425E-001	  0.00000E+000	  0.00000E+000
  1.20000E-002	  2.10511E-001	  2.10471E-001	  0.00000E+000	  0.00000E+000
  1.28000E-002	  2.10407E-001	  2.10405E-001	  0.00000E+000	  0.00000E+000
  1.44000E-002	  2.10375E-001	  2.10395E-001	  0.00000E+000	  0.00000E+000
  1.60000E-002	  2.10345E-001	  2.10371E-001	  0.00000E+000	  0.00000E+000
  1.76000E-002	  2.10394E-001	  2.10386E-001	  0.00000E+000	  0.00000E+000
  1.92000E-002	  2.10353E-001	  2.10367E-001	  0.00000E+000	  0.00000E+000
  2.08000E-002	  2.10391E-001	  2.10437E-001	  0.00000E+000	  0.00000E+000
  2.24000E-002	  2.10368E-001	  2.10361E-001	  0.00000E+000	  0.00000E+000
  2.40000E-002	  2.10304E-001	  2.10300E-001	  0.00000E+000	  0.00000E+000
  2.56000E-002	  2.10334E-001	  2.10314E-001	  0.00000E+000	  0.00000E+000
  2.88000E-002	  2.10302E-001	  2.10312E-001	  0.00000E+000	  0.00000E+000
  3.20000E-002	  2.10290E-001	  2.10316E-001	  0.00000E+000	  0.00000E+000
  3.52000E-002	  2.10275E-001	  2.10282E-001	  0.00000E+000	  0.00000E+000
  3.84000E-002	  2.10240E-001	  2.10248E-001	  0.00000E+000	  0.00000E+000
  4.16000E-002	  2.10263E-001	  2.10263E-001	  0.00000E+000	  0.00000E+000
  4.48000E-002	  2.10224E-001	  2.10217E-001	  0.00000E+000	  0.00000E+000
  4.80000E-002	  2.10162E-001	  2.10171E-001	  0.00000E+000	  0.00000E+000
  5.12000E-002	  2.10166E-001	  2.10156E-001	  0.00000E+000	  0.00000E+000
  5.76000E-002	  2.10126E-001	  2.10128E-001	  0.00000E+000	  0.00000E+000
  6.40000E-002	  2.10097E-001	  2.10119E-001	  0.00000E+000	  0.00000E+000
  7.04000E-002	  2.10095E-001	  2.10126E-001	  0.00000E+000	  0.00000E+000
  7.68000E-002	  2.10067E-001	  2.10091E-001	  0.00000E+000	  0.00000E+000
  8.32000E-002	  2.10025E-001	  2.10050E-001	  0.00000E+000	  0.00000E+000
  8.96000E-002	  2.09984E-001	  2.10002E-001	  0.00000E+000	  0.00000E+000
  9.60000E-002	  2.09950E-001	  2.09953E-001	  0.00000E+000	  0.00000E+000
  1.02400E-001	  2.09916E-001	  2.09939E-001	  0.00000E+000	  0.00000E+000
  1.15200E-001	  2.09851E-001	  2.09893E-001	  0.00000E+000	  0.00000E+000
  1.28000E-001	  2.09769E-001	  2.09784E-001	  0.00000E+000	  0.00000E+000
  1.40800E-001	  2.09724E-001	  2.09754E-001	  0.00000E+000	  0.00000E+000
  1.53600E-001	  2.09645E-001	  2.09669E-001	  0.00000E+000	  0.00000E+000
  1.66400E-001	  2.09584E-001	  2.09624E-001	  0.00000E+000	  0.00000E+000
  1.79200E-001	  2.09517E-001	  2.09545E-001	  0.00000E+000	  0.00000E+000
  1.92000E-001	  2.09439E-001	  2.09448E-001	  0.00000E+000	  0.00000E+000
  2.04800E-001	  2.09387E-001	  2.09418E-001	  0.00000E+000	  0.00000E+000
  2.30400E-001	  2.09266E-001	  2.09302E-001	  0.00000E+000	  0.00000E+000
  2.56000E-001	  2.09163E-001	  2.09207E-001	  0.00000E+000	  0.00000E+000
  2.81600E-001	  2.09058E-001	  2.09111E-001	  0.00000E+000	  0.00000E+000
  3.07200E-001	  2.08949E-001	  2.09009E-001	  0.00000E+000	  0.00000E+000
  3.32800E-001	  2.08826E-001	  2.08903E-001	  0.00000E+000	  0.00000E+000
  3.58400E-001	  2.08705E-001	  2.08784E-001	  0.00000E+000	  0.00000E+000
  3.84000E-001	  2.08602E-001	  2.08721E-001	  0.00000E+000	  0.00000E+000
  4.09600E-001	  2.08476E-001	  2.08599E-001	  0.00000E+000	  0.00000E+000
  4.60800E-001	  2.08231E-001	  2.08360E-001	  0.00000E+000	  0.00000E+000
  5.12000E-001	  2.07960E-001	  2.08113E-001	  0.00000E+000	  0.00000E+000
  5.63200E-001	  2.07692E-001	  2.07832E-001	  0.00000E+000	  0.00000E+000
  6.14400E-001	  2.07450E-001	  2.07567E-001	  0.00000E+000	  0.00000E+000
  6.65600E-001	  2.07179E-001	  2.07277E-001	  0.00000E+000	  0.00000E+000
  7.16800E-001	  2.06944E-001	  2.06990E-001	  0.00000E+000	  0.00000E+000
  7.68000E-001	  2.06699E-001	  2.06722E-001	  0.00000E+000	  0.00000E+000
  8.19200E-001	  2.06485E-001	  2.06456E-001	  0.00000E+000	  0.00000E+000
  9.21600E-001	  2.05977E-001	  2.05887E-001	  0.00000E+000	  0.00000E+000
  1.02400E+000	  2.05505E-001	  2.05391E-001	  0.00000E+000	  0.00000E+000
  1.12640E+000	  2.05075E-001	  2.04980E-001	  0.00000E+000	  0.00000E+000
  1.22880E+000	  2.04631E-001	  2.04581E-001	  0.00000E+000	  0.00000E+000
  1.33120E+000	  2.04108E-001	  2.04072E-001	  0.00000E+000	  0.00000E+000
  1.43360E+000	  2.03557E-001	  2.03521E-001	  0.00000E+000	  0.00000E+000
  1.53600E+000	  2.03082E-001	  2.03028E-001	  0.00000E+000	  0.00000E+000
  1.63840E+000	  2.02680E-001	  2.02665E-001	  0.00000E+000	  0.00000E+000
  1.84320E+000	  2.01848E-001	  2.01931E-001	  0.00000E+000	  0.00000E+000
  2.04800E+000	  2.00992E-001	  2.01111E-001	  0.00000E+000	  0.00000E+000
  2.25280E+000	  2.00084E-001	  2.00161E-001	  0.00000E+000	  0.00000E+000
  2.45760E+000	  1.99185E-001	  1.99200E-001	  0.00000E+000	  0.00000E+000
  2.66240E+000	  1.98329E-001	  1.98346E-001	  0.00000E+000	  0.00000E+000
  2.86720E+000	  1.97382E-001	  1.97440E-001	  0.00000E+000	  0.00000E+000
  3.07200E+000	  1.96507E-001	  1.96528E-001	  0.00000E+000	  0.00000E+000
  3.27680E+000	  1.95726E-001	  1.95690E-001	  0.00000E+000	  0.00000E+000
  3.68640E+000	  1.94041E-001	  1.94000E-001	  0.00000E+000	  0.00000E+000
  4.09600E+000	  1.92322E-001	  1.92136E-001	  0.00000E+000	  0.00000E+000
  4.50560E+000	  1.90777E-001	  1.90693E-001	  0.00000E+000	  0.00000E+000
  4.91520E+000	  1.89157E-001	  1.89006E-001	  0.00000E+000	  0.00000E+000
  5.32480E+000	  1.87625E-001	  1.87464E-001	  0.00000E+000	  0.00000E+000
  5.73440E+000	  1.86106E-001	  1.85900E-001	  0.00000E+000	  0.00000E+000
  6.14400E+000	  1.84606E-001	  1.84393E-001	  0.00000E+000	  0.00000E+000
  6.55360E+000	  1.83120E-001	  1.82821E-001	  0.00000E+000	  0.00000E+000
  7.37280E+000	  1.80108E-001	  1.79753E-001	  0.00000E+000	  0.00000E+000
  8.19200E+000	  1.77204E-001	  1.76742E-001	  0.00000E+000	  0.00000E+000
  9.01120E+000	  1.74327E-001	  1.73823E-001	  0.00000E+000	  0.00000E+000
  9.83040E+000	  1.71506E-001	  1.70975E-001	  0.00000E+000	  0.00000E+000
  1.06496E+001	  1.68707E-001	  1.68199E-001	  0.00000E+000	  0.00000E+000
  1.14688E+001	  1.66088E-001	  1.65587E-001	  0.00000E+000	  0.00000E+000
  1.22880E+001	  1.63485E-001	  1.62927E-001	  0.00000E+000	  0.00000E+000
  1.31072E+001	  1.60971E-001	  1.60385E-001	  0.00000E+000	  0.00000E+000
  1.47456E+001	  1.55998E-001	  1.55323E-001	  0.00000E+000	  0.00000E+000
  1.63840E+001	  1.51302E-001	  1.50612E-001	  0.00000E+000	  0.00000E+000
  1.80224E+001	  1.46697E-001	  1.46054E-001	  0.00000E+000	  0.00000E+000
  1.96608E+001	  1.42461E-001	  1.41791E-001	  0.00000E+000	  0.00000E+000
  2.12992E+001	  1.38407E-001	  1.37754E-001	  0.00000E+000	  0.00000E+000
  2.29376E+001	  1.34421E-001	  1.33899E-001	  0.00000E+000	  0.00000E+000
  2.45760E+001	  1.30574E-001	  1.30150E-001	  0.00000E+000	  0.00000E+000
  2.62144E+001	  1.27118E-001	  1.26805E-001	  0.00000E+000	  0.00000E+000
  2.94912E+001	  1.20383E-001	  1.20135E-001	  0.00000E+000	  0.00000E+000
  3.27680E+001	  1.14115E-001	  1.13906E-001	  0.00000E+000	  0.00000E+000
  3.60448E+001	  1.08060E-001	  1.07883E-001	  0.00000E+000	  0.00000E+000
  3.93216E+001	  1.02242E-001	  1.02137E-001	  0.00000E+000	  0.00000E+000
  4.25984E+001	  9.64234E-002	  9.62516E-002	  0.00000E+000	  0.00000E+000
  4.58752E+001	  9.08915E-002	  9.06532E-002	  0.00000E+000	  0.00000E+000
  4.91520E+001	  8.58392E-002	  8.55326E-002	  0.00000E+000	  0.00000E+000
  5.24288E+001	  8.14077E-002	  8.10685E-002	  0.00000E+000	  0.00000E+000
  5.89824E+001	  7.39324E-002	  7.35437E-002	  0.00000E+000	  0.00000E+000
  6.55360E+001	  6.87201E-002	  6.82768E-002	  0.00000E+000	  0.00000E+000
  7.20896E+001	  6.43706E-002	  6.38306E-002	  0.00000E+000	  0.00000E+000
  7.86432E+001	  5.99924E-002	  5.93951E-002	  0.00000E+000	  0.00000E+000
  8.51968E+001	  5.58040E-002	  5.51850E-002	  0.00000E+000	  0.00000E+000
  9.17504E+001	  5.19428E-002	  5.12669E-002	  0.00000E+000	  0.00000E+000
  9.83040E+001	  4.86061E-002	  4.80308E-002	  0.00000E+000	  0.00000E+000
  1.04858E+002	  4.51501E-002	  4.47546E-002	  0.00000E+000	  0.00000E+000
  1.17965E+002	  3.87767E-002	  3.87114E-002	  0.00000E+000	  0.00000E+000
  1.31072E+002	  3.41820E-002	  3.43114E-002	  0.00000E+000	  0.00000E+000
  1.44179E+002	  2.82381E-002	  2.82096E-002	  0.00000E+000	  0.00000E+000
  1.57286E+002	  2.19809E-002	  2.12400E-002	  0.00000E+000	  0.00000E+000
  1.70394E+002	  1.66815E-002	  1.50625E-002	  0.00000E+000	  0.00000E+000
  1.83501E+002	  1.26489E-002	  1.13290E-002	  0.00000E+000	  0.00000E+000
  1.96608E+002	  9.72751E-003	  8.98312E-003	  0.00000E+000	  0.00000E+000
  2.09715E+002	  8.06454E-003	  8.02041E-003	  0.00000E+000	  0.00000E+000
  2.35930E+002	  1.61679E-003	  2.42044E-003	  0.00000E+000	  0.00000E+000
  2.62144E+002	 -1.64862E-003	 -1.78489E-003	  0.00000E+000	  0.00000E+000
  2.88358E+002	  2.42129E-005	  2.86243E-004	  0.00000E+000	  0.00000E+000
  3.14573E+002	 -1.49967E-004	  3.52412E-004	  0.00000E+000	  0.00000E+000
  3.40787E+002	  4.17501E-003	  4.08312E-003	  0.00000E+000	  0.00000E+000
  3.67002E+002	  7.84532E-003	  8.78427E-003	  0.00000E+000	  0.00000E+000
  3.93216E+002	  1.03397E-002	  1.22708E-002	  0.00000E+000	  0.00000E+000
  4.19430E+002	  7.50280E-003	  9.81703E-003	  0.00000E+000	  0.00000E+000
  4.71859E+002	  4.36346E-003	  6.00940E-003	  0.00000E+000	  0.00000E+000
  5.24288E+002	 -2.34319E-003	  2.33142E-003	  0.00000E+000	  0.00000E+000
  5.76717E+002	 -4.02135E-003	 -5.37182E-005	  0.00000E+000	  0.00000E+000
  6.29146E+002	 -5.44613E-003	 -2.01577E-003	  0.00000E+000	  0.00000E+000
  6.81574E+002	 -2.02720E-003	  3.06970E-003	  0.00000E+000	  0.00000E+000
  7.34003E+002	  4.15958E-003	  8.96042E-003	  0.00000E+000	  0.00000E+000
  7.86432E+002	  1.06368E-002	  1.47012E-002	  0.00000E+000	  0.00000E+000
  8.38861E+002	  9.39566E-003	  1.42649E-002	  0.00000E+000	  0.00000E+000
  9.43718E+002	  2.12893E-003	  5.36058E-003	  0.00000E+000	  0.00000E+000
  1.04858E+003	  2.38852E-003	  4.38509E-003	  0.00000E+000	  0.00000E+000
  1.15343E+003	  1.55270E-002	  1.78455E-002	  0.00000E+000	  0.00000E+000
  1.25829E+003	  4.89090E-003	  6.26308E-003	  0.00000E+000	  0.00000E+000
  1.36315E+003	 -1.49914E-002	 -1.18750E-002	  0.00000E+000	  0.00000E+000
  1.46801E+003	 -1.90723E-002	 -1.65546E-002	  0.00000E+000	  0.00000E+000
  1.57286E+003	 -1.36811E-002	 -9.74228E-003	  0.00000E+000	  0.00000E+000
  1.67772E+003	 -1.91920E-002	 -1.66070E-002	  0.00000E+000	  0.00000E+000
  1.88744E+003	 -2.28208E-003	 -1.88509E-003	  0.00000E+000	  0.00000E+000
  2.09715E+003	 -5.46256E-003	 -5.44425E-003	  0.00000E+000	  0.00000E+000
  2.30687E+003	  6.50767E-004	  1.95872E-003	  0.00000E+000	  0.00000E+000
  2.51658E+003	  1.73090E-003	  2.62480E-003	  0.00000E+000	  0.00000E+000
  2.72630E+003	 -2.87871E-003	 -2.44822E-004	  0.00000E+000	  0.00000E+000
  2.93601E+003	 -3.77221E-003	 -3.07766E-003	  0.00000E+000	  0.00000E+000
  3.14573E+003	  1.88638E-003	  2.00203E-003	  0.00000E+000	  0.00000E+000
  3.35544E+003	  4.82987E-003	  8.94498E-003	  0.00000E+000	  0.00000E+000
  3.77487E+003	 -3.03931E-003	 -2.05731E-004	  0.00000E+000	  0.00000E+000
  4.19430E+003	 -3.29240E-003	  1.37546E-005	  0.00000E+000	  0.00000E+000
  4.61373E+003	 -2.43749E-003	 -2.57470E-003	  0.00000E+000	  0.00000E+000
  5.03317E+003	 -8.66003E-003	 -9.29761E-003	  0.00000E+000	  0.00000E+000
  5.45260E+003	  6.79553E-003	  7.72556E-003	  0.00000E+000	  0.00000E+000
  5.87203E+003	  6.32713E-003	  4.30594E-003	  0.00000E+000	  0.00000E+000

"Count Rate"
       0.15625	    2129.52075	    2133.46265	       0.00000	       0.00000
       0.31250	    3164.33130	    2840.70264	       0.00000	       0.00000
       0.46875	    1044.75549	     729.70850	       0.00000	       0.00000
       0.62500	    1818.49890	    1591.41296	       0.00000	       0.00000
       0.78125	    3428.05444	    3741.46313	       0.00000	       0.00000
       0.93750	    3084.40161	    2648.94189	       0.00000	       0.00000
       1.09375	    4661.21094	    3833.24463	       0.00000	       0.00000
       1.25000	    2402.21582	    2108.84399	       0.00000	       0.00000
       1.40625	    1447.75708	    1166.00671	       0.00000	       0.00000
       1.56250	    2513.49658	    2286.71777	       0.00000	       0.00000
       1.71875	    1566.31409	    1186.93298	       0.00000	       0.00000
       1.87500	    1360.33362	    1054.66187	       0.00000	       0.00000
       2.03125	    3241.28516	    2907.29565	       0.00000	       0.00000
       2.18750	    3072.74170	    2610.26978	       0.00000	       0.00000
       2.34375	    3312.16602	    2676.86279	       0.00000	       0.00000
       2.50000	    1834.72803	    1594.63184	       0.00000	       0.00000
       2.65625	    2373.43091	    1487.14600	       0.00000	       0.00000
       2.81250	    2087.83447	    2233.71729	       0.00000	       0.00000
       2.96875	    2215.47217	    2075.33618	       0.00000	       0.00000
       3.12500	    2683.85107	    2265.77856	       0.00000	       0.00000
       3.28125	    1223.91565	    1013.49402	       0.00000	       0.00000
       3.43750	    1677.77405	    1541.08728	       0.00000	       0.00000
       3.59375	    1754.56165	    1983.97058	       0.00000	       0.00000
       3.75000	    1499.94495	    1181.26953	       0.00000	       0.00000
       3.90625	    3899.71631	    2845.75830	       0.00000	       0.00000
       4.06250	    3885.78442	    3256.75293	       0.00000	       0.00000
       4.21875	    1763.44409	    1724.20239	       0.00000	       0.00000
       4.37500	    1732.29138	    1326.94751	       0.00000	       0.00000
       4.53125	    3392.73560	    2428.74170	       0.00000	       0.00000
       4.68750	    2462.92139	    1884.92566	       0.00000	       0.00000
       4.84375	    1719.49878	    1294.96924	       0.00000	       0.00000
       5.00000	    2081.42212	    1523.05359	       0.00000	       0.00000
       5.15625	    2120.48462	    1622.78320	       0.00000	       0.00000
       5.31250	    2492.69189	    1992.68030	       0.00000	       0.00000
       5.46875	    3147.79517	    2595.16699	       0.00000	       0.00000
       5.62500	    1989.69177	    1510.61292	       0.00000	       0.00000
       5.78125	    1890.87720	    1601.72888	       0.00000	       0.00000
       5.93750	    1962.51953	    1460.26172	       0.00000	       0.00000
       6.09375	    2344.30029	    1980.70044	       0.00000	       0.00000
       6.25000	    3239.17334	    2550.09521	       0.00000	       0.00000
       6.40625	    4330.92676	    3963.76880	       0.00000	       0.00000
       6.56250	    3225.29932	    2547.44580	       0.00000	       0.00000
       6.71875	    2987.93579	    2994.06006	       0.00000	       0.00000
       6.87500	    3184.50903	    3116.91748	       0.00000	       0.00000
       7.03125	    1221.27905	    1033.21082	       0.00000	       0.00000
       7.18750	    2923.70410	    2182.07324	       0.00000	       0.00000
       7.34375	    2197.48315	    2423.80127	       0.00000	       0.00000
       7.50000	     839.86298	     766.62720	       0.00000	       0.00000
       7.65625	    1754.99036	    1714.92957	       0.00000	       0.00000
       7.81250	    1553.39355	    1698.06689	       0.00000	       0.00000
       7.96875	    3096.65674	    2339.44312	       0.00000	       0.00000
       8.12500	    1920.39160	    1529.72180	       0.00000	       0.00000
       8.28125	    1028.77600	     823.08990	       0.00000	       0.00000
       8.43750	    2989.88110	    2701.48804	       0.00000	       0.00000
       8.59375	    3127.33594	    2533.84058	       0.00000	       0.00000
       8.75000	    2370.26318	    1849.33167	       0.00000	       0.00000
       8.90625	    2422.22070	    2078.11353	       0.00000	       0.00000
       9.06250	    2178.22729	    1756.73108	       0.00000	       0.00000
       9.21875	    3442.90112	    3529.44165	       0.00000	       0.00000
       9.37500	    3319.53174	    2662.76465	       0.00000	       0.00000
       9.53125	    2291.13989	    2312.02783	       0.00000	       0.00000
       9.68750	    3577.11133	    3089.45728	       0.00000	       0.00000
       9.84375	    2487.82178	    1922.92578	       0.00000	       0.00000
      10.00000	    1741.98022	    1283.36060	       0.00000	       0.00000
      10.15625	    1951.87720	    1665.58948	       0.00000	       0.00000
      10.31250	    1090.14709	     831.24286	       0.00000	       0.00000
      10.46875	    1667.00378	    1553.74548	       0.00000	       0.00000
      10.62500	    2312.30298	    2198.96802	       0.00000	       0.00000
      10.78125	    2585.38843	    2173.97803	       0.00000	       0.00000
      10.93750	    1706.13025	    1305.96997	       0.00000	       0.00000
      11.09375	    1660.57227	    1303.01343	       0.00000	       0.00000
      11.25000	    1359.87292	    1003.53638	       0.00000	       0.00000
      11.40625	    1375.12927	    1087.78564	       0.00000	       0.00000
      11.56250	    1454.68774	    1113.53088	       0.00000	       0.00000
      11.71875	    1959.62048	    1384.18457	       0.00000	       0.00000
      11.87500	    4084.25195	    3455.94336	       0.00000	       0.00000
      12.03125	    3330.91016	    3668.68823	       0.00000	       0.00000
      12.18750	    2095.34106	    1700.70349	       0.00000	       0.00000
      12.34375	    2309.19922	    2378.76807	       0.00000	       0.00000
      12.50000	    2165.02515	    1560.85535	       0.00000	       0.00000
      12.65625	    1436.16760	    1237.22021	       0.00000	       0.00000
      12.81250	    3038.84375	    2133.77637	       0.00000	       0.00000
      12.96875	    2733.86938	    2630.19775	       0.00000	       0.00000
      13.12500	    3072.82495	    3086.54541	       0.00000	       0.00000
      13.28125	    2809.15308	    1779.19324	       0.00000	       0.00000
      13.43750	    1748.51404	    1577.83325	       0.00000	       0.00000
      13.59375	    2054.04492	    2119.78052	       0.00000	       0.00000
      13.75000	    2640.60962	    2453.71899	       0.00000	       0.00000
      13.90625	    3371.07983	    2574.70142	       0.00000	       0.00000
      14.06250	    3030.39648	    2729.59473	       0.00000	       0.00000
      14.21875	    1766.47742	    1456.29407	       0.00000	       0.00000
      14.37500	    3032.86011	    2338.24658	       0.00000	       0.00000
      14.53125	    3871.89111	    3153.06177	       0.00000	       0.00000
      14.68750	    2328.18018	    1815.06885	       0.00000	       0.00000
      14.84375	    3575.08276	    2974.59277	       0.00000	       0.00000
      15.00000	    2676.08838	    2427.80737	       0.00000	       0.00000
      15.15625	    3589.15527	    2654.57983	       0.00000	       0.00000
      15.31250	    2770.66016	    2445.61719	       0.00000	       0.00000
      15.46875	    1979.45251	    2169.32544	       0.00000	       0.00000
      15.62500	    2561.80640	    2296.89941	       0.00000	       0.00000
      15.78125	    1733.48169	    1472.76001	       0.00000	       0.00000
      15.93750	    2534.30762	    2830.08594	       0.00000	       0.00000
      16.09375	    2481.93433	    2169.99731	       0.00000	       0.00000
      16.25000	    2119.78711	    1990.60046	       0.00000	       0.00000
      16.40625	    1789.45166	    1952.03711	       0.00000	       0.00000
      16.56250	    1205.48511	    1233.23975	       0.00000	       0.00000
      16.71875	     700.71881	     602.33942	       0.00000	       0.00000
      16.87500	    1413.07825	    1202.88062	       0.00000	       0.00000
      17.03125	    1902.30664	    1361.28723	       0.00000	       0.00000
      17.18750	    1456.39001	    1132.52454	       0.00000	       0.00000
      17.34375	    1702.31616	    1255.36914	       0.00000	       0.00000
      17.50000	    1769.06287	    1395.09570	       0.00000	       0.00000
      17.65625	    1740.81543	    1346.26123	       0.00000	       0.00000
      17.81250	    3195.62476	    2428.14014	       0.00000	       0.00000
      17.96875	    3064.87695	    2339.31519	       0.00000	       0.00000
      18.12500	    3606.81787	    3204.78247	       0.00000	       0.00000
      18.28125	    2814.43921	    2623.81104	       0.00000	       0.00000
      18.43750	    4217.59180	    3330.14868	       0.00000	       0.00000
      18.59375	    2340.05103	    1808.25977	       0.00000	       0.00000
      18.75000	    3262.52515	    3230.36768	       0.00000	       0.00000
      18.90625	    3807.41626	    2833.94482	       0.00000	       0.00000
      19.06250	    3340.72705	    2402.48462	       0.00000	       0.00000
      19.21875	    1703.77527	    1710.28345	       0.00000	       0.00000
      19.37500	    1851.20032	    1957.48315	       0.00000	       0.00000
      19.53125	    2288.68872	    1642.32092	       0.00000	       0.00000
      19.68750	    2940.88672	    2387.88745	       0.00000	       0.00000
      19.84375	    2406.48438	    1759.86682	       0.00000	       0.00000
      20.00000	    2601.25293	    1876.83032	       0.00000	       0.00000
      20.15625	    2043.81860	    1384.38940	       0.00000	       0.00000
      20.31250	    1873.64978	    1735.27356	       0.00000	       0.00000
      20.46875	    3264.12500	    3442.94604	       0.00000	       0.00000
      20.62500	    4006.30615	    3802.32227	       0.00000	       0.00000
      20.78125	    1783.03931	    1272.55823	       0.00000	       0.00000
      20.93750	    2303.59326	    1757.53735	       0.00000	       0.00000
      21.09375	    3350.21094	    2753.43921	       0.00000	       0.00000
      21.25000	    2693.82788	    2729.71631	       0.00000	       0.00000
      21.40625	    2503.32129	    2800.11060	       0.00000	       0.00000
      21.56250	    2142.82520	    1957.74548	       0.00000	       0.00000
      21.71875	    3362.26123	    2656.44214	       0.00000	       0.00000
      21.87500	    3308.19189	    2475.71387	       0.00000	       0.00000
      22.03125	    2589.81689	    2242.38843	       0.00000	       0.00000
      22.18750	    4222.93555	    4354.20801	       0.00000	       0.00000
      22.34375	    1932.58911	    1817.34705	       0.00000	       0.00000
      22.50000	    3368.59668	    2995.53833	       0.00000	       0.00000
      22.65625	    3297.24243	    2888.75000	       0.00000	       0.00000
      22.81250	    2311.50293	    1668.89795	       0.00000	       0.00000
      22.96875	    2672.98462	    2645.60132	       0.00000	       0.00000
      23.12500	    2064.96899	    2015.39209	       0.00000	       0.00000
      23.28125	    1766.13184	    1581.17371	       0.00000	       0.00000
      23.43750	    1480.75928	    1436.62842	       0.00000	       0.00000
      23.59375	    2417.12671	    1886.19275	       0.00000	       0.00000
      23.75000	    2438.62256	    2597.03564	       0.00000	       0.00000
      23.90625	    1724.86792	    1553.51514	       0.00000	       0.00000
      24.06250	    2994.89844	    2543.29272	       0.00000	       0.00000
      24.21875	    1934.59216	    1585.30139	       0.00000	       0.00000
      24.37500	    1920.71802	    1449.12659	       0.00000	       0.00000
      24.53125	    2629.12256	    1965.88562	       0.00000	       0.00000
      24.68750	    2232.02783	    2478.44653	       0.00000	       0.00000
      24.84375	    3585.48828	    3896.98999	       0.00000	       0.00000
      25.00000	    1532.30725	    1145.66272	       0.00000	       0.00000
      25.15625	    2632.93677	    2326.64429	       0.00000	       0.00000
      25.31250	    2617.73145	    2270.79590	       0.00000	       0.00000
      25.46875	    2143.42676	    2126.99927	       0.00000	       0.00000
      25.62500	    2222.15332	    1831.98901	       0.00000	       0.00000
      25.78125	    1850.06763	    1579.75952	       0.00000	       0.00000
      25.93750	    2593.59253	    2559.14404	       0.00000	       0.00000
      26.09375	    3420.18311	    3828.79053	       0.00000	       0.00000
      26.25000	    2583.97412	    2750.28418	       0.00000	       0.00000
      26.40625	    1519.18823	    1498.06995	       0.00000	       0.00000
      26.56250	    2123.38354	    2074.65137	       0.00000	       0.00000
      26.71875	    2640.38574	    2252.49341	       0.00000	       0.00000
      26.87500	    1830.75391	    1316.92590	       0.00000	       0.00000
      27.03125	    3041.80664	    2641.68481	       0.00000	       0.00000
      27.18750	    3989.49463	    3608.29614	       0.00000	       0.00000
      27.34375	    2656.14136	    2205.14990	       0.00000	       0.00000
      27.50000	    1464.31262	    1308.12659	       0.00000	       0.00000
      27.65625	    1453.33105	    1301.82312	       0.00000	       0.00000
      27.81250	    3350.85083	    3277.99902	       0.00000	       0.00000
      27.96875	    2280.03662	    2497.68994	       0.00000	       0.00000
      28.12500	    1742.86328	    1473.41272	       0.00000	       0.00000
      28.28125	    1961.52759	    2096.05127	       0.00000	       0.00000
      28.43750	    2751.82007	    2409.68408	       0.00000	       0.00000
      28.59375	    1709.38757	    1191.25903	       0.00000	       0.00000
      28.75000	    1667.01648	    1152.61255	       0.00000	       0.00000
      28.90625	    1773.72168	    1133.63171	       0.00000	       0.00000
      29.06250	    2678.15552	    1671.00977	       0.00000	       0.00000
      29.21875	     969.13269	     673.95612	       0.00000	       0.00000
      29.37500	    1435.60449	    1483.91431	       0.00000	       0.00000
      29.53125	    2652.51904	    2140.12451	       0.00000	       0.00000
      29.68750	    2166.16406	    1958.41101	       0.00000	       0.00000
      29.84375	    2878.83081	    2055.44653	       0.00000	       0.00000
      30.00000	    1816.09265	    1353.44141	       0.00000	       0.00000
      30.15625	    1150.05273	     996.43292	       0.00000	       0.00000
      30.31250	    1288.01306	    1138.91125	       0.00000	       0.00000
      30.46875	    2631.95752	    2320.92310	       0.00000	       0.00000
      30.62500	    3938.11304	    2762.43677	       0.00000	       0.00000
      30.78125	    3913.99341	    2688.06836	       0.00000	       0.00000
      30.93750	    2189.65674	    1750.34436	       0.00000	       0.00000
      31.09375	    1318.80103	     963.43079	       0.00000	       0.00000
      31.25000	    1747.54773	    1425.96045	       0.00000	       0.00000
      31.40625	    1619.19312	    1185.48669	       0.00000	       0.00000
      31.56250	    3640.92065	    2241.06372	       0.00000	       0.00000
      31.71875	    3590.40308	    2500.34570	       0.00000	       0.00000
      31.87500	    2582.20801	    1807.36377	       0.00000	       0.00000
      32.03125	    1743.59924	    1664.80872	       0.00000	       0.00000
      32.18750	    1865.52881	    1412.70068	       0.00000	       0.00000
      32.34375	    1600.12903	    1647.94604	       0.00000	       0.00000
      32.50000	    2719.01636	    2362.10376	       0.00000	       0.00000
      32.65625	    3331.25562	    2563.63672	       0.00000	       0.00000
      32.81250	    4457.48975	    3604.79565	       0.00000	       0.00000
      32.96875	    2574.05493	    2391.01025	       0.00000	       0.00000
      33.12500	    1734.88318	    1469.95703	       0.00000	       0.00000
      33.28125	    2089.53662	    1515.98218	       0.00000	       0.00000
      33.43750	    2961.26904	    2790.12744	       0.00000	       0.00000
      33.59375	    2206.72412	    1886.97351	       0.00000	       0.00000
      33.75000	    1925.74158	    1385.07410	       0.00000	       0.00000
      33.90625	    2226.15942	    1426.94604	       0.00000	       0.00000
      34.06250	    2169.16553	    1929.83093	       0.00000	       0.00000
      34.21875	    2300.02881	    2181.72778	       0.00000	       0.00000
      34.37500	    3183.58740	    2469.30811	       0.00000	       0.00000
      34.53125	    2606.79468	    1916.02722	       0.00000	       0.00000
      34.68750	    1557.32288	    1125.59387	       0.00000	       0.00000
      34.84375	    3199.55420	    2609.35449	       0.00000	       0.00000
      35.00000	    3199.85498	    2144.18188	       0.00000	       0.00000
      35.15625	    2994.73828	    2841.88647	       0.00000	       0.00000
      35.31250	    3368.64795	    3092.88745	       0.00000	       0.00000
      35.46875	    2024.49219	    1497.07166	       0.00000	       0.00000
      35.62500	    3153.40112	    2750.16895	       0.00000	       0.00000
      35.78125	    2332.84521	    1853.58093	       0.00000	       0.00000
      35.93750	    1874.60962	    1599.02832	       0.00000	       0.00000
      36.09375	    2881.16650	    2330.89990	       0.00000	       0.00000
      36.25000	    3207.79028	    3359.38794	       0.00000	       0.00000
      36.40625	    3044.97437	    2297.64160	       0.00000	       0.00000
      36.56250	    2253.76050	    1627.03247	       0.00000	       0.00000
      36.71875	    2125.98169	    1580.35461	       0.00000	       0.00000
      36.87500	    3407.79370	    3416.60571	       0.00000	       0.00000
      37.03125	    3159.06445	    3050.48438	       0.00000	       0.00000
      37.18750	    1846.59265	    1351.31042	       0.00000	       0.00000
      37.34375	    1897.73108	    1615.55188	       0.00000	       0.00000
      37.50000	    2436.07544	    2087.00879	       0.00000	       0.00000
      37.65625	    1513.56946	    1503.97021	       0.00000	       0.00000
      37.81250	    1015.68903	     824.44019	       0.00000	       0.00000
      37.96875	    1524.72388	    1366.25964	       0.00000	       0.00000
      38.12500	    2515.31396	    1746.02466	       0.00000	       0.00000
      38.28125	    1961.91150	    1485.17493	       0.00000	       0.00000
      38.43750	    1598.15796	    1346.95874	       0.00000	       0.00000
      38.59375	    2087.22632	    1924.51294	       0.00000	       0.00000
      38.75000	    2345.60596	    1948.20386	       0.00000	       0.00000
      38.90625	    1145.45154	    1073.48926	       0.00000	       0.00000
      39.06250	    2346.90503	    1867.10303	       0.00000	       0.00000
      39.21875	    1223.76855	     937.34003	       0.00000	       0.00000
      39.37500	    1651.88818	    1398.36584	       0.00000	       0.00000
      39.53125	    2002.92590	    1616.26855	       0.00000	       0.00000
      39.68750	    1443.70630	    1142.45654	       0.00000	       0.00000

Monitor Diode	   2998.32
