ALV-7004 or ALV-7004/FAST Data
Date :	"04.06.2015"
Time :	"16:15:09"
Samplename : 	""
SampMemo(0) : 	""
SampMemo(1) : 	""
SampMemo(2) : 	""
SampMemo(3) : 	""
SampMemo(4) : 	""
SampMemo(5) : 	""
SampMemo(6) : 	""
SampMemo(7) : 	""
SampMemo(8) : 	""
SampMemo(9) : 	""
Temperature [K] :	     297.90789
Viscosity [cp]  :	       0.89000
Refractive Index:	       1.33200
Wavelength [nm] :	     632.80000
Angle [°]       :	      60.70000
Duration [s]    :	        30
Runs            :	         1
Mode            :	"C-CH0/1+1/0 "
MeanCR0 [kHz]   :	     412.09979
MeanCR1 [kHz]   :	     351.38654
MeanCR2 [kHz]   :	       0.00000
MeanCR3 [kHz]   :	       0.00000

"Correlation"
  2.50000E-005	  3.04315E-001	  3.01100E-001	  0.00000E+000	  0.00000E+000
  5.00000E-005	  2.99440E-001	  2.98423E-001	  0.00000E+000	  0.00000E+000
  7.50000E-005	  2.97063E-001	  2.98327E-001	  0.00000E+000	  0.00000E+000
  1.00000E-004	  2.97155E-001	  2.96124E-001	  0.00000E+000	  0.00000E+000
  1.25000E-004	  2.99628E-001	  3.04079E-001	  0.00000E+000	  0.00000E+000
  1.50000E-004	  2.98700E-001	  2.98024E-001	  0.00000E+000	  0.00000E+000
  1.75000E-004	  2.98708E-001	  2.98963E-001	  0.00000E+000	  0.00000E+000
  2.00000E-004	  2.99248E-001	  2.98822E-001	  0.00000E+000	  0.00000E+000
  2.25000E-004	  2.99769E-001	  2.98852E-001	  0.00000E+000	  0.00000E+000
  2.50000E-004	  2.96024E-001	  2.91215E-001	  0.00000E+000	  0.00000E+000
  2.75000E-004	  2.99255E-001	  2.94875E-001	  0.00000E+000	  0.00000E+000
  3.00000E-004	  3.02378E-001	  3.00286E-001	  0.00000E+000	  0.00000E+000
  3.25000E-004	  2.99961E-001	  2.98808E-001	  0.00000E+000	  0.00000E+000
  3.50000E-004	  3.03373E-001	  3.06408E-001	  0.00000E+000	  0.00000E+000
  3.75000E-004	  2.98896E-001	  2.92893E-001	  0.00000E+000	  0.00000E+000
  4.00000E-004	  2.98438E-001	  2.99118E-001	  0.00000E+000	  0.00000E+000
  4.50000E-004	  2.99321E-001	  2.97525E-001	  0.00000E+000	  0.00000E+000
  5.00000E-004	  2.98129E-001	  2.96852E-001	  0.00000E+000	  0.00000E+000
  5.50000E-004	  2.99327E-001	  2.98604E-001	  0.00000E+000	  0.00000E+000
  6.00000E-004	  2.99776E-001	  2.98068E-001	  0.00000E+000	  0.00000E+000
  6.50000E-004	  3.00571E-001	  3.01236E-001	  0.00000E+000	  0.00000E+000
  7.00000E-004	  2.99360E-001	  3.01081E-001	  0.00000E+000	  0.00000E+000
  7.50000E-004	  3.00946E-001	  3.00249E-001	  0.00000E+000	  0.00000E+000
  8.00000E-004	  2.99261E-001	  2.99188E-001	  0.00000E+000	  0.00000E+000
  9.00000E-004	  2.99321E-001	  2.98904E-001	  0.00000E+000	  0.00000E+000
  1.00000E-003	  2.98027E-001	  2.98037E-001	  0.00000E+000	  0.00000E+000
  1.10000E-003	  2.99142E-001	  2.98490E-001	  0.00000E+000	  0.00000E+000
  1.20000E-003	  3.00793E-001	  3.03434E-001	  0.00000E+000	  0.00000E+000
  1.30000E-003	  2.99304E-001	  2.98980E-001	  0.00000E+000	  0.00000E+000
  1.40000E-003	  2.98710E-001	  2.96910E-001	  0.00000E+000	  0.00000E+000
  1.50000E-003	  2.99517E-001	  2.99218E-001	  0.00000E+000	  0.00000E+000
  1.60000E-003	  3.00096E-001	  3.00260E-001	  0.00000E+000	  0.00000E+000
  1.80000E-003	  2.99441E-001	  2.97968E-001	  0.00000E+000	  0.00000E+000
  2.00000E-003	  2.98728E-001	  2.98888E-001	  0.00000E+000	  0.00000E+000
  2.20000E-003	  2.99588E-001	  3.00013E-001	  0.00000E+000	  0.00000E+000
  2.40000E-003	  2.97963E-001	  2.98578E-001	  0.00000E+000	  0.00000E+000
  2.60000E-003	  3.00223E-001	  3.01125E-001	  0.00000E+000	  0.00000E+000
  2.80000E-003	  3.00957E-001	  3.00606E-001	  0.00000E+000	  0.00000E+000
  3.00000E-003	  2.97938E-001	  2.97544E-001	  0.00000E+000	  0.00000E+000
  3.20000E-003	  2.98768E-001	  2.98779E-001	  0.00000E+000	  0.00000E+000
  3.60000E-003	  2.98653E-001	  2.99120E-001	  0.00000E+000	  0.00000E+000
  4.00000E-003	  2.98870E-001	  2.99431E-001	  0.00000E+000	  0.00000E+000
  4.40000E-003	  2.99761E-001	  2.99979E-001	  0.00000E+000	  0.00000E+000
  4.80000E-003	  2.98092E-001	  2.97883E-001	  0.00000E+000	  0.00000E+000
  5.20000E-003	  2.99568E-001	  2.99065E-001	  0.00000E+000	  0.00000E+000
  5.60000E-003	  2.98613E-001	  2.99175E-001	  0.00000E+000	  0.00000E+000
  6.00000E-003	  2.98666E-001	  2.97372E-001	  0.00000E+000	  0.00000E+000
  6.40000E-003	  2.98361E-001	  2.97868E-001	  0.00000E+000	  0.00000E+000
  7.20000E-003	  2.98962E-001	  2.99120E-001	  0.00000E+000	  0.00000E+000
  8.00000E-003	  2.99000E-001	  2.98631E-001	  0.00000E+000	  0.00000E+000
  8.80000E-003	  2.99075E-001	  2.99196E-001	  0.00000E+000	  0.00000E+000
  9.60000E-003	  2.98877E-001	  2.98861E-001	  0.00000E+000	  0.00000E+000
  1.04000E-002	  2.98837E-001	  2.99340E-001	  0.00000E+000	  0.00000E+000
  1.12000E-002	  2.98317E-001	  2.97969E-001	  0.00000E+000	  0.00000E+000
  1.20000E-002	  2.98460E-001	  2.98080E-001	  0.00000E+000	  0.00000E+000
  1.28000E-002	  2.98459E-001	  2.98635E-001	  0.00000E+000	  0.00000E+000
  1.44000E-002	  2.97951E-001	  2.97656E-001	  0.00000E+000	  0.00000E+000
  1.60000E-002	  2.98074E-001	  2.97870E-001	  0.00000E+000	  0.00000E+000
  1.76000E-002	  2.98387E-001	  2.98698E-001	  0.00000E+000	  0.00000E+000
  1.92000E-002	  2.97679E-001	  2.97613E-001	  0.00000E+000	  0.00000E+000
  2.08000E-002	  2.97203E-001	  2.97214E-001	  0.00000E+000	  0.00000E+000
  2.24000E-002	  2.97837E-001	  2.98140E-001	  0.00000E+000	  0.00000E+000
  2.40000E-002	  2.97229E-001	  2.97341E-001	  0.00000E+000	  0.00000E+000
  2.56000E-002	  2.97444E-001	  2.97387E-001	  0.00000E+000	  0.00000E+000
  2.88000E-002	  2.97308E-001	  2.97573E-001	  0.00000E+000	  0.00000E+000
  3.20000E-002	  2.96866E-001	  2.97166E-001	  0.00000E+000	  0.00000E+000
  3.52000E-002	  2.96550E-001	  2.96493E-001	  0.00000E+000	  0.00000E+000
  3.84000E-002	  2.96099E-001	  2.96284E-001	  0.00000E+000	  0.00000E+000
  4.16000E-002	  2.96290E-001	  2.96616E-001	  0.00000E+000	  0.00000E+000
  4.48000E-002	  2.96164E-001	  2.96108E-001	  0.00000E+000	  0.00000E+000
  4.80000E-002	  2.95398E-001	  2.95670E-001	  0.00000E+000	  0.00000E+000
  5.12000E-002	  2.95574E-001	  2.95737E-001	  0.00000E+000	  0.00000E+000
  5.76000E-002	  2.95060E-001	  2.95061E-001	  0.00000E+000	  0.00000E+000
  6.40000E-002	  2.94394E-001	  2.94664E-001	  0.00000E+000	  0.00000E+000
  7.04000E-002	  2.94075E-001	  2.94243E-001	  0.00000E+000	  0.00000E+000
  7.68000E-002	  2.93676E-001	  2.93823E-001	  0.00000E+000	  0.00000E+000
  8.32000E-002	  2.93164E-001	  2.93352E-001	  0.00000E+000	  0.00000E+000
  8.96000E-002	  2.92752E-001	  2.92712E-001	  0.00000E+000	  0.00000E+000
  9.60000E-002	  2.92437E-001	  2.92628E-001	  0.00000E+000	  0.00000E+000
  1.02400E-001	  2.92009E-001	  2.92151E-001	  0.00000E+000	  0.00000E+000
  1.15200E-001	  2.91079E-001	  2.91262E-001	  0.00000E+000	  0.00000E+000
  1.28000E-001	  2.90039E-001	  2.90130E-001	  0.00000E+000	  0.00000E+000
  1.40800E-001	  2.89230E-001	  2.89333E-001	  0.00000E+000	  0.00000E+000
  1.53600E-001	  2.88373E-001	  2.88513E-001	  0.00000E+000	  0.00000E+000
  1.66400E-001	  2.87391E-001	  2.87624E-001	  0.00000E+000	  0.00000E+000
  1.79200E-001	  2.86763E-001	  2.86849E-001	  0.00000E+000	  0.00000E+000
  1.92000E-001	  2.85796E-001	  2.86019E-001	  0.00000E+000	  0.00000E+000
  2.04800E-001	  2.84903E-001	  2.84970E-001	  0.00000E+000	  0.00000E+000
  2.30400E-001	  2.83328E-001	  2.83518E-001	  0.00000E+000	  0.00000E+000
  2.56000E-001	  2.81497E-001	  2.81641E-001	  0.00000E+000	  0.00000E+000
  2.81600E-001	  2.80039E-001	  2.80131E-001	  0.00000E+000	  0.00000E+000
  3.07200E-001	  2.78321E-001	  2.78489E-001	  0.00000E+000	  0.00000E+000
  3.32800E-001	  2.76818E-001	  2.76830E-001	  0.00000E+000	  0.00000E+000
  3.58400E-001	  2.75195E-001	  2.75237E-001	  0.00000E+000	  0.00000E+000
  3.84000E-001	  2.73600E-001	  2.73708E-001	  0.00000E+000	  0.00000E+000
  4.09600E-001	  2.71952E-001	  2.72039E-001	  0.00000E+000	  0.00000E+000
  4.60800E-001	  2.68825E-001	  2.68984E-001	  0.00000E+000	  0.00000E+000
  5.12000E-001	  2.65873E-001	  2.66042E-001	  0.00000E+000	  0.00000E+000
  5.63200E-001	  2.62854E-001	  2.62937E-001	  0.00000E+000	  0.00000E+000
  6.14400E-001	  2.59996E-001	  2.60048E-001	  0.00000E+000	  0.00000E+000
  6.65600E-001	  2.57166E-001	  2.57226E-001	  0.00000E+000	  0.00000E+000
  7.16800E-001	  2.54160E-001	  2.54137E-001	  0.00000E+000	  0.00000E+000
  7.68000E-001	  2.51433E-001	  2.51474E-001	  0.00000E+000	  0.00000E+000
  8.19200E-001	  2.48566E-001	  2.48569E-001	  0.00000E+000	  0.00000E+000
  9.21600E-001	  2.43124E-001	  2.43219E-001	  0.00000E+000	  0.00000E+000
  1.02400E+000	  2.37903E-001	  2.38010E-001	  0.00000E+000	  0.00000E+000
  1.12640E+000	  2.32809E-001	  2.32940E-001	  0.00000E+000	  0.00000E+000
  1.22880E+000	  2.27841E-001	  2.27944E-001	  0.00000E+000	  0.00000E+000
  1.33120E+000	  2.23048E-001	  2.23136E-001	  0.00000E+000	  0.00000E+000
  1.43360E+000	  2.18300E-001	  2.18434E-001	  0.00000E+000	  0.00000E+000
  1.53600E+000	  2.13688E-001	  2.13881E-001	  0.00000E+000	  0.00000E+000
  1.63840E+000	  2.09198E-001	  2.09374E-001	  0.00000E+000	  0.00000E+000
  1.84320E+000	  2.00708E-001	  2.00878E-001	  0.00000E+000	  0.00000E+000
  2.04800E+000	  1.92769E-001	  1.93071E-001	  0.00000E+000	  0.00000E+000
  2.25280E+000	  1.85209E-001	  1.85503E-001	  0.00000E+000	  0.00000E+000
  2.45760E+000	  1.78052E-001	  1.78338E-001	  0.00000E+000	  0.00000E+000
  2.66240E+000	  1.71120E-001	  1.71441E-001	  0.00000E+000	  0.00000E+000
  2.86720E+000	  1.64503E-001	  1.64841E-001	  0.00000E+000	  0.00000E+000
  3.07200E+000	  1.58222E-001	  1.58575E-001	  0.00000E+000	  0.00000E+000
  3.27680E+000	  1.52193E-001	  1.52554E-001	  0.00000E+000	  0.00000E+000
  3.68640E+000	  1.40556E-001	  1.40869E-001	  0.00000E+000	  0.00000E+000
  4.09600E+000	  1.29860E-001	  1.30092E-001	  0.00000E+000	  0.00000E+000
  4.50560E+000	  1.19973E-001	  1.20015E-001	  0.00000E+000	  0.00000E+000
  4.91520E+000	  1.10800E-001	  1.10771E-001	  0.00000E+000	  0.00000E+000
  5.32480E+000	  1.02473E-001	  1.02292E-001	  0.00000E+000	  0.00000E+000
  5.73440E+000	  9.52828E-002	  9.49842E-002	  0.00000E+000	  0.00000E+000
  6.14400E+000	  8.89099E-002	  8.83249E-002	  0.00000E+000	  0.00000E+000
  6.55360E+000	  8.30850E-002	  8.22705E-002	  0.00000E+000	  0.00000E+000
  7.37280E+000	  7.23797E-002	  7.12421E-002	  0.00000E+000	  0.00000E+000
  8.19200E+000	  6.33297E-002	  6.17067E-002	  0.00000E+000	  0.00000E+000
  9.01120E+000	  5.58507E-002	  5.34559E-002	  0.00000E+000	  0.00000E+000
  9.83040E+000	  4.95735E-002	  4.66812E-002	  0.00000E+000	  0.00000E+000
  1.06496E+001	  4.38065E-002	  4.05978E-002	  0.00000E+000	  0.00000E+000
  1.14688E+001	  3.87138E-002	  3.53271E-002	  0.00000E+000	  0.00000E+000
  1.22880E+001	  3.44031E-002	  3.09565E-002	  0.00000E+000	  0.00000E+000
  1.31072E+001	  3.09882E-002	  2.75908E-002	  0.00000E+000	  0.00000E+000
  1.47456E+001	  2.57902E-002	  2.25452E-002	  0.00000E+000	  0.00000E+000
  1.63840E+001	  2.25083E-002	  1.93866E-002	  0.00000E+000	  0.00000E+000
  1.80224E+001	  2.03395E-002	  1.69935E-002	  0.00000E+000	  0.00000E+000
  1.96608E+001	  1.86712E-002	  1.53493E-002	  0.00000E+000	  0.00000E+000
  2.12992E+001	  1.70530E-002	  1.38662E-002	  0.00000E+000	  0.00000E+000
  2.29376E+001	  1.56137E-002	  1.29008E-002	  0.00000E+000	  0.00000E+000
  2.45760E+001	  1.53446E-002	  1.35044E-002	  0.00000E+000	  0.00000E+000
  2.62144E+001	  1.48594E-002	  1.34584E-002	  0.00000E+000	  0.00000E+000
  2.94912E+001	  1.26263E-002	  1.24466E-002	  0.00000E+000	  0.00000E+000
  3.27680E+001	  1.15465E-002	  1.23311E-002	  0.00000E+000	  0.00000E+000
  3.60448E+001	  7.72099E-003	  8.47213E-003	  0.00000E+000	  0.00000E+000
  3.93216E+001	  3.76159E-003	  4.34647E-003	  0.00000E+000	  0.00000E+000
  4.25984E+001	  1.00738E-004	  6.53646E-004	  0.00000E+000	  0.00000E+000
  4.58752E+001	  4.54651E-004	  1.11965E-003	  0.00000E+000	  0.00000E+000
  4.91520E+001	  3.30087E-003	  4.25120E-003	  0.00000E+000	  0.00000E+000
  5.24288E+001	  5.39748E-003	  6.50062E-003	  0.00000E+000	  0.00000E+000
  5.89824E+001	  4.02104E-003	  4.98634E-003	  0.00000E+000	  0.00000E+000
  6.55360E+001	  1.32101E-003	  1.56890E-003	  0.00000E+000	  0.00000E+000
  7.20896E+001	  3.34055E-003	  1.96021E-003	  0.00000E+000	  0.00000E+000
  7.86432E+001	  4.34408E-003	  2.57880E-003	  0.00000E+000	  0.00000E+000
  8.51968E+001	  1.17191E-005	 -9.81515E-004	  0.00000E+000	  0.00000E+000
  9.17504E+001	 -2.08945E-003	 -2.11547E-003	  0.00000E+000	  0.00000E+000
  9.83040E+001	 -1.59051E-004	 -1.51969E-003	  0.00000E+000	  0.00000E+000
  1.04858E+002	  2.53548E-003	  1.25224E-003	  0.00000E+000	  0.00000E+000
  1.17965E+002	 -4.59192E-004	 -8.11628E-005	  0.00000E+000	  0.00000E+000
  1.31072E+002	 -3.12809E-003	 -3.70309E-003	  0.00000E+000	  0.00000E+000
  1.44179E+002	 -7.39815E-003	 -7.48359E-003	  0.00000E+000	  0.00000E+000
  1.57286E+002	 -7.23536E-003	 -7.38483E-003	  0.00000E+000	  0.00000E+000
  1.70394E+002	 -3.58950E-003	 -6.15527E-003	  0.00000E+000	  0.00000E+000
  1.83501E+002	  7.04776E-004	 -1.89867E-003	  0.00000E+000	  0.00000E+000
  1.96608E+002	 -4.94740E-003	 -5.48213E-003	  0.00000E+000	  0.00000E+000
  2.09715E+002	  4.61955E-004	 -4.29304E-005	  0.00000E+000	  0.00000E+000
  2.35930E+002	  8.31052E-003	  6.97889E-003	  0.00000E+000	  0.00000E+000
  2.62144E+002	  4.03413E-003	  4.12315E-003	  0.00000E+000	  0.00000E+000
  2.88358E+002	  4.04348E-003	  4.75411E-003	  0.00000E+000	  0.00000E+000
  3.14573E+002	 -1.02473E-003	  2.80024E-004	  0.00000E+000	  0.00000E+000
  3.40787E+002	 -3.24056E-004	  2.61169E-004	  0.00000E+000	  0.00000E+000
  3.67002E+002	 -8.89291E-003	 -8.58904E-003	  0.00000E+000	  0.00000E+000
  3.93216E+002	 -4.67180E-003	 -4.63047E-003	  0.00000E+000	  0.00000E+000
  4.19430E+002	  1.79919E-004	  6.79774E-004	  0.00000E+000	  0.00000E+000
  4.71859E+002	  3.90498E-003	  5.03414E-003	  0.00000E+000	  0.00000E+000
  5.24288E+002	  6.28652E-003	  7.14258E-003	  0.00000E+000	  0.00000E+000
  5.76717E+002	  3.20064E-003	  1.23043E-003	  0.00000E+000	  0.00000E+000
  6.29146E+002	 -2.53642E-003	 -3.67896E-003	  0.00000E+000	  0.00000E+000
  6.81574E+002	 -1.56417E-003	 -2.72380E-003	  0.00000E+000	  0.00000E+000
  7.34003E+002	  2.69448E-003	  1.79974E-003	  0.00000E+000	  0.00000E+000
  7.86432E+002	 -2.81488E-004	  1.16861E-004	  0.00000E+000	  0.00000E+000
  8.38861E+002	 -1.17805E-003	 -1.31638E-003	  0.00000E+000	  0.00000E+000
  9.43718E+002	  1.78362E-003	  3.07196E-003	  0.00000E+000	  0.00000E+000
  1.04858E+003	  5.62538E-004	  1.40325E-003	  0.00000E+000	  0.00000E+000
  1.15343E+003	 -2.79650E-003	 -1.89080E-003	  0.00000E+000	  0.00000E+000
  1.25829E+003	  1.61509E-004	  1.55379E-004	  0.00000E+000	  0.00000E+000
  1.36315E+003	  1.51387E-003	  2.07132E-003	  0.00000E+000	  0.00000E+000
  1.46801E+003	  2.05113E-003	  2.32878E-003	  0.00000E+000	  0.00000E+000
  1.57286E+003	  2.12089E-003	  2.42186E-003	  0.00000E+000	  0.00000E+000
  1.67772E+003	  1.86106E-003	  2.15255E-003	  0.00000E+000	  0.00000E+000
  1.88744E+003	  1.36150E-003	  1.72381E-003	  0.00000E+000	  0.00000E+000
  2.09715E+003	 -1.14647E-003	 -9.87974E-004	  0.00000E+000	  0.00000E+000
  2.30687E+003	 -2.28424E-003	 -2.52898E-003	  0.00000E+000	  0.00000E+000
  2.51658E+003	  6.76293E-004	  9.44749E-004	  0.00000E+000	  0.00000E+000
  2.72630E+003	 -1.35677E-003	 -8.66622E-004	  0.00000E+000	  0.00000E+000
  2.93601E+003	 -3.16466E-003	 -2.48977E-003	  0.00000E+000	  0.00000E+000
  3.14573E+003	 -6.72847E-004	  4.27804E-004	  0.00000E+000	  0.00000E+000
  3.35544E+003	  1.02725E-003	  1.60105E-003	  0.00000E+000	  0.00000E+000
  3.77487E+003	 -1.46950E-003	 -1.45824E-003	  0.00000E+000	  0.00000E+000
  4.19430E+003	 -6.50311E-004	 -1.07759E-003	  0.00000E+000	  0.00000E+000
  4.61373E+003	 -2.09335E-003	 -1.88454E-003	  0.00000E+000	  0.00000E+000
  5.03317E+003	  5.88443E-004	  3.18076E-004	  0.00000E+000	  0.00000E+000
  5.45260E+003	 -5.81290E-004	 -1.27192E-003	  0.00000E+000	  0.00000E+000
  5.87203E+003	  9.17707E-004	  7.55170E-004	  0.00000E+000	  0.00000E+000

"Count Rate"
       0.11719	     347.23834	     286.97290	       0.00000	       0.00000
       0.23438	     434.92426	     326.31686	       0.00000	       0.00000
       0.35156	     468.12738	     453.76468	       0.00000	       0.00000
       0.46875	     575.25073	     504.89560	       0.00000	       0.00000
       0.58594	     535.70209	     426.85590	       0.00000	       0.00000
       0.70313	     422.05411	     296.76413	       0.00000	       0.00000
       0.82031	     451.11218	     308.16730	       0.00000	       0.00000
       0.93750	     394.41183	     299.39957	       0.00000	       0.00000
       1.05469	     477.23630	     353.46445	       0.00000	       0.00000
       1.17188	     392.50137	     342.74359	       0.00000	       0.00000
       1.28906	     598.20209	     438.64288	       0.00000	       0.00000
       1.40625	     344.44086	     275.97058	       0.00000	       0.00000
       1.52344	     430.86450	     359.90381	       0.00000	       0.00000
       1.64063	     435.86246	     370.22379	       0.00000	       0.00000
       1.75781	     530.66150	     419.66602	       0.00000	       0.00000
       1.87500	     509.91061	     367.10220	       0.00000	       0.00000
       1.99219	     398.80423	     341.83951	       0.00000	       0.00000
       2.10938	     427.75995	     355.88666	       0.00000	       0.00000
       2.22656	     462.48978	     412.10086	       0.00000	       0.00000
       2.34375	     356.71396	     273.08780	       0.00000	       0.00000
       2.46094	     575.06311	     445.45749	       0.00000	       0.00000
       2.57813	     558.90082	     395.00888	       0.00000	       0.00000
       2.69531	     494.80588	     371.16199	       0.00000	       0.00000
       2.81250	     501.04053	     452.49387	       0.00000	       0.00000
       2.92969	     490.28555	     409.06454	       0.00000	       0.00000
       3.04688	     721.27454	     589.98877	       0.00000	       0.00000
       3.16406	     347.00806	     297.01999	       0.00000	       0.00000
       3.28125	     496.69931	     408.74045	       0.00000	       0.00000
       3.39844	     474.14880	     394.46301	       0.00000	       0.00000
       3.51563	     578.26147	     467.12097	       0.00000	       0.00000
       3.63281	     619.24298	     506.95108	       0.00000	       0.00000
       3.75000	     549.98804	     447.31680	       0.00000	       0.00000
       3.86719	     534.30334	     403.05167	       0.00000	       0.00000
       3.98438	     441.21008	     397.53345	       0.00000	       0.00000
       4.10156	     400.03241	     305.50629	       0.00000	       0.00000
       4.21875	     453.26999	     341.51541	       0.00000	       0.00000
       4.33594	     414.07101	     322.72620	       0.00000	       0.00000
       4.45313	     512.15375	     382.77838	       0.00000	       0.00000
       4.57031	     582.10803	     460.45135	       0.00000	       0.00000
       4.68750	     549.27161	     403.12842	       0.00000	       0.00000
       4.80469	     586.57715	     514.37976	       0.00000	       0.00000
       4.92188	     566.44891	     436.63858	       0.00000	       0.00000
       5.03906	     436.96268	     341.08896	       0.00000	       0.00000
       5.15625	     417.13290	     309.44666	       0.00000	       0.00000
       5.27344	     420.46771	     354.13824	       0.00000	       0.00000
       5.39063	     448.11853	     346.89719	       0.00000	       0.00000
       5.50781	     407.42700	     321.77948	       0.00000	       0.00000
       5.62500	     446.54919	     362.80362	       0.00000	       0.00000
       5.74219	     370.94876	     316.50861	       0.00000	       0.00000
       5.85938	     445.41486	     427.58939	       0.00000	       0.00000
       5.97656	     484.40057	     415.07745	       0.00000	       0.00000
       6.09375	     403.98129	     307.48499	       0.00000	       0.00000
       6.21094	     591.56659	     520.73383	       0.00000	       0.00000
       6.32813	     420.74066	     319.19522	       0.00000	       0.00000
       6.44531	     528.75958	     425.61920	       0.00000	       0.00000
       6.56250	     497.88483	     392.88516	       0.00000	       0.00000
       6.67969	     296.08182	     271.04941	       0.00000	       0.00000
       6.79688	     500.65674	     405.58475	       0.00000	       0.00000
       6.91406	     296.97736	     246.06816	       0.00000	       0.00000
       7.03125	     568.17175	     514.29449	       0.00000	       0.00000
       7.14844	     476.29810	     360.83344	       0.00000	       0.00000
       7.26563	     541.04120	     430.63422	       0.00000	       0.00000
       7.38281	     394.88947	     295.02423	       0.00000	       0.00000
       7.50000	     449.40637	     348.31299	       0.00000	       0.00000
       7.61719	     636.87225	     456.75833	       0.00000	       0.00000
       7.73438	     676.50623	     548.12024	       0.00000	       0.00000
       7.85156	     373.36246	     339.61346	       0.00000	       0.00000
       7.96875	     537.45056	     427.66614	       0.00000	       0.00000
       8.08594	     452.18683	     379.24741	       0.00000	       0.00000
       8.20313	     418.44638	     306.35916	       0.00000	       0.00000
       8.32031	     430.88156	     340.50049	       0.00000	       0.00000
       8.43750	     434.83899	     339.51965	       0.00000	       0.00000
       8.55469	     538.51666	     446.54919	       0.00000	       0.00000
       8.67188	     472.86093	     422.83878	       0.00000	       0.00000
       8.78906	     472.47714	     382.83807	       0.00000	       0.00000
       8.90625	     471.42807	     416.56146	       0.00000	       0.00000
       9.02344	     435.17160	     353.68622	       0.00000	       0.00000
       9.14063	     454.23376	     349.58380	       0.00000	       0.00000
       9.25781	     506.97665	     381.18347	       0.00000	       0.00000
       9.37500	     382.35193	     357.38776	       0.00000	       0.00000
       9.49219	     348.01447	     278.15399	       0.00000	       0.00000
       9.60938	     608.86328	     530.81500	       0.00000	       0.00000
       9.72656	     424.39957	     362.88040	       0.00000	       0.00000
       9.84375	     527.20728	     368.37302	       0.00000	       0.00000
       9.96094	     436.01596	     316.77298	       0.00000	       0.00000
      10.07813	     368.57773	     259.92767	       0.00000	       0.00000
      10.19531	     475.24905	     421.07327	       0.00000	       0.00000
      10.31250	     579.98431	     435.47012	       0.00000	       0.00000
      10.42969	     399.50363	     326.00128	       0.00000	       0.00000
      10.54688	     399.40128	     344.01440	       0.00000	       0.00000
      10.66406	     564.65784	     475.18082	       0.00000	       0.00000
      10.78125	     380.50967	     316.42331	       0.00000	       0.00000
      10.89844	     379.01712	     328.46616	       0.00000	       0.00000
      11.01563	     525.68060	     439.00110	       0.00000	       0.00000
      11.13281	     558.10760	     390.88086	       0.00000	       0.00000
      11.25000	     565.63867	     488.81857	       0.00000	       0.00000
      11.36719	     485.59464	     386.77844	       0.00000	       0.00000
      11.48438	     411.92175	     325.77103	       0.00000	       0.00000
      11.60156	     341.95041	     257.07901	       0.00000	       0.00000
      11.71875	     445.79865	     363.46036	       0.00000	       0.00000
      11.83594	     386.71024	     353.02948	       0.00000	       0.00000
      11.95313	     413.81516	     333.83939	       0.00000	       0.00000
      12.07031	     423.99017	     331.92038	       0.00000	       0.00000
      12.18750	     451.35950	     375.32410	       0.00000	       0.00000
      12.30469	     393.23486	     318.87112	       0.00000	       0.00000
      12.42188	     550.31213	     428.60434	       0.00000	       0.00000
      12.53906	     399.29041	     326.91388	       0.00000	       0.00000
      12.65625	     585.43427	     491.92310	       0.00000	       0.00000
      12.77344	     479.27469	     353.57532	       0.00000	       0.00000
      12.89063	     510.21765	     419.15427	       0.00000	       0.00000
      13.00781	     558.65344	     436.45093	       0.00000	       0.00000
      13.12500	     480.83548	     359.05090	       0.00000	       0.00000
      13.24219	     504.98090	     401.43970	       0.00000	       0.00000
      13.35938	     412.59552	     301.07123	       0.00000	       0.00000
      13.47656	     446.58331	     332.26154	       0.00000	       0.00000
      13.59375	     779.86829	     508.70804	       0.00000	       0.00000
      13.71094	     341.16574	     289.15631	       0.00000	       0.00000
      13.82813	     581.38306	     403.23077	       0.00000	       0.00000
      13.94531	     420.01569	     344.84171	       0.00000	       0.00000
      14.06250	     452.34033	     389.08127	       0.00000	       0.00000
      14.17969	     427.08618	     365.60110	       0.00000	       0.00000
      14.29688	     528.93866	     406.13913	       0.00000	       0.00000
      14.41406	     487.10425	     371.33255	       0.00000	       0.00000
      14.53125	     759.68036	     640.06207	       0.00000	       0.00000
      14.64844	     587.30212	     452.84354	       0.00000	       0.00000
      14.76563	     442.89880	     399.52921	       0.00000	       0.00000
      14.88281	     513.47571	     399.52921	       0.00000	       0.00000
      15.00000	     581.41718	     485.00613	       0.00000	       0.00000
      15.11719	     615.79730	     520.92999	       0.00000	       0.00000
      15.23438	     438.77933	     332.94385	       0.00000	       0.00000
      15.35156	     529.98773	     410.58270	       0.00000	       0.00000
      15.46875	     487.74393	     420.68948	       0.00000	       0.00000
      15.58594	     478.40475	     380.86789	       0.00000	       0.00000
      15.70313	     364.42413	     294.61484	       0.00000	       0.00000
      15.82031	     566.71332	     464.11026	       0.00000	       0.00000
      15.93750	     397.66989	     301.96677	       0.00000	       0.00000
      16.05469	     729.00177	     597.18713	       0.00000	       0.00000
      16.17188	     365.84845	     298.11169	       0.00000	       0.00000
      16.28906	     681.35919	     503.02777	       0.00000	       0.00000
      16.40625	     535.95795	     511.92343	       0.00000	       0.00000
      16.52344	     458.37881	     359.80145	       0.00000	       0.00000
      16.64063	     491.38577	     384.14301	       0.00000	       0.00000
      16.75781	     458.53235	     412.60406	       0.00000	       0.00000
      16.87500	     690.61304	     617.91248	       0.00000	       0.00000
      16.99219	     541.34827	     421.74707	       0.00000	       0.00000
      17.10938	     532.87903	     364.46677	       0.00000	       0.00000
      17.22656	     353.13184	     304.63632	       0.00000	       0.00000
      17.34375	     437.66205	     397.85754	       0.00000	       0.00000
      17.46094	     507.88074	     434.68546	       0.00000	       0.00000
      17.57813	     583.39587	     440.23779	       0.00000	       0.00000
      17.69531	     450.13986	     361.02960	       0.00000	       0.00000
      17.81250	     308.18436	     237.35159	       0.00000	       0.00000
      17.92969	     469.40674	     403.79367	       0.00000	       0.00000
      18.04688	     464.23819	     400.20300	       0.00000	       0.00000
      18.16406	     493.55212	     391.10263	       0.00000	       0.00000
      18.28125	     439.11197	     360.44113	       0.00000	       0.00000
      18.39844	     379.35828	     312.80704	       0.00000	       0.00000
      18.51563	     585.18695	     426.29300	       0.00000	       0.00000
      18.63281	     473.62003	     334.15497	       0.00000	       0.00000
      18.75000	     443.32526	     375.22174	       0.00000	       0.00000
      18.86719	     384.98737	     295.08392	       0.00000	       0.00000
      18.98438	     537.81726	     437.46588	       0.00000	       0.00000
      19.10156	     371.38373	     290.80240	       0.00000	       0.00000
      19.21875	     524.34155	     409.56775	       0.00000	       0.00000
      19.33594	     359.58823	     292.07321	       0.00000	       0.00000
      19.45313	     451.80301	     409.82361	       0.00000	       0.00000
      19.57031	     489.39001	     421.72147	       0.00000	       0.00000
      19.68750	     438.54053	     362.35159	       0.00000	       0.00000
      19.80469	     394.29245	     316.51712	       0.00000	       0.00000
      19.92188	     450.18253	     366.42844	       0.00000	       0.00000
      20.03906	     488.28976	     385.75497	       0.00000	       0.00000
      20.15625	     595.55811	     484.32382	       0.00000	       0.00000
      20.27344	     615.06378	     425.74713	       0.00000	       0.00000
      20.39063	     446.43832	     449.43198	       0.00000	       0.00000
      20.50781	     349.93347	     294.47836	       0.00000	       0.00000
      20.62500	     383.02573	     291.85147	       0.00000	       0.00000
      20.74219	     475.32581	     432.51059	       0.00000	       0.00000
      20.85938	     434.05432	     285.36948	       0.00000	       0.00000
      20.97656	     498.33685	     370.67584	       0.00000	       0.00000
      21.09375	     351.68192	     282.69992	       0.00000	       0.00000
      21.21094	     510.57587	     408.80014	       0.00000	       0.00000
      21.32813	     319.87753	     247.11722	       0.00000	       0.00000
      21.44531	     510.52469	     394.90652	       0.00000	       0.00000
      21.56250	     531.88116	     403.58896	       0.00000	       0.00000
      21.67969	     475.18933	     359.46881	       0.00000	       0.00000
      21.79688	     567.42975	     427.23969	       0.00000	       0.00000
      21.91406	     546.62769	     410.01978	       0.00000	       0.00000
      22.03125	     470.44727	     350.02728	       0.00000	       0.00000
      22.14844	     500.57144	     380.85086	       0.00000	       0.00000
      22.26563	     581.19543	     437.09915	       0.00000	       0.00000
      22.38281	     391.22202	     311.78357	       0.00000	       0.00000
      22.50000	     328.94379	     248.18333	       0.00000	       0.00000
      22.61719	     562.65350	     415.64035	       0.00000	       0.00000
      22.73438	     662.00702	     490.25995	       0.00000	       0.00000
      22.85156	     514.28595	     427.69174	       0.00000	       0.00000
      22.96875	     351.91220	     299.31427	       0.00000	       0.00000
      23.08594	     431.52975	     392.64636	       0.00000	       0.00000
      23.20313	     493.84210	     368.39862	       0.00000	       0.00000
      23.32031	     485.33878	     404.25424	       0.00000	       0.00000
      23.43750	     481.63721	     365.60110	       0.00000	       0.00000
      23.55469	     515.46295	     420.44214	       0.00000	       0.00000
      23.67188	     542.46552	     446.86478	       0.00000	       0.00000
      23.78906	     404.91095	     349.25116	       0.00000	       0.00000
      23.90625	     522.61017	     403.49515	       0.00000	       0.00000
      24.02344	     391.51202	     331.18689	       0.00000	       0.00000
      24.14063	     381.78903	     300.20981	       0.00000	       0.00000
      24.25781	     435.34219	     334.06113	       0.00000	       0.00000
      24.37500	     630.85083	     446.45538	       0.00000	       0.00000
      24.49219	     361.24283	     289.48041	       0.00000	       0.00000
      24.60938	     493.70566	     399.53772	       0.00000	       0.00000
      24.72656	     479.31735	     379.32416	       0.00000	       0.00000
      24.84375	     408.55283	     347.26392	       0.00000	       0.00000
      24.96094	     572.04388	     422.58292	       0.00000	       0.00000
      25.07813	     451.46185	     332.58563	       0.00000	       0.00000
      25.19531	     430.26746	     356.28754	       0.00000	       0.00000
      25.31250	     478.20004	     349.30234	       0.00000	       0.00000
      25.42969	     520.11975	     394.21567	       0.00000	       0.00000
      25.54688	     353.79709	     249.82942	       0.00000	       0.00000
      25.66406	     403.72543	     308.16730	       0.00000	       0.00000
      25.78125	     395.75089	     340.01434	       0.00000	       0.00000
      25.89844	     352.79068	     271.50143	       0.00000	       0.00000
      26.01563	     387.96396	     283.45047	       0.00000	       0.00000
      26.13281	     331.33188	     256.36258	       0.00000	       0.00000
      26.25000	     402.87256	     309.42960	       0.00000	       0.00000
      26.36719	     532.80225	     421.78970	       0.00000	       0.00000
      26.48438	     446.03745	     361.88251	       0.00000	       0.00000
      26.60156	     437.90939	     312.26971	       0.00000	       0.00000
      26.71875	     533.53577	     461.30423	       0.00000	       0.00000
      26.83594	     593.88647	     509.09183	       0.00000	       0.00000
      26.95313	     453.82437	     377.78043	       0.00000	       0.00000
      27.07031	     577.73267	     421.26093	       0.00000	       0.00000
      27.18750	     580.44489	     426.88147	       0.00000	       0.00000
      27.30469	     487.41129	     445.03958	       0.00000	       0.00000
      27.42188	     488.33243	     342.03568	       0.00000	       0.00000
      27.53906	     458.48969	     392.26254	       0.00000	       0.00000
      27.65625	     401.56763	     356.42398	       0.00000	       0.00000
      27.77344	     654.94507	     449.02258	       0.00000	       0.00000
      27.89063	     431.52975	     338.66675	       0.00000	       0.00000
      28.00781	     435.12042	     380.33057	       0.00000	       0.00000
      28.12500	     435.14603	     360.50934	       0.00000	       0.00000
      28.24219	     536.78528	     409.15836	       0.00000	       0.00000
      28.35938	     434.27606	     325.46396	       0.00000	       0.00000
      28.47656	     526.62732	     440.34015	       0.00000	       0.00000
      28.59375	     567.70264	     403.69131	       0.00000	       0.00000
      28.71094	     528.52930	     355.08496	       0.00000	       0.00000
      28.82813	     357.17453	     289.10513	       0.00000	       0.00000
      28.94531	     445.37219	     342.30008	       0.00000	       0.00000
      29.06250	     456.76685	     340.03137	       0.00000	       0.00000
      29.17969	     492.46896	     404.99625	       0.00000	       0.00000
      29.29688	     459.30847	     365.89963	       0.00000	       0.00000
      29.41406	     485.55200	     387.41812	       0.00000	       0.00000
      29.53125	     379.82736	     311.14389	       0.00000	       0.00000
      29.64844	     363.03391	     307.53616	       0.00000	       0.00000
      29.76563	     457.91827	     349.47290	       0.00000	       0.00000

Monitor Diode	   6447.81
