ALV-7004 or ALV-7004/FAST Data
Date :	"04.06.2015"
Time :	"16:09:30"
Samplename : 	""
SampMemo(0) : 	""
SampMemo(1) : 	""
SampMemo(2) : 	""
SampMemo(3) : 	""
SampMemo(4) : 	""
SampMemo(5) : 	""
SampMemo(6) : 	""
SampMemo(7) : 	""
SampMemo(8) : 	""
SampMemo(9) : 	""
Temperature [K] :	     297.91870
Viscosity [cp]  :	       0.89000
Refractive Index:	       1.33200
Wavelength [nm] :	     632.80000
Angle [°]       :	      44.80000
Duration [s]    :	        33
Runs            :	         1
Mode            :	"C-CH0/1+1/0 "
MeanCR0 [kHz]   :	     394.16016
MeanCR1 [kHz]   :	     339.69339
MeanCR2 [kHz]   :	       0.00000
MeanCR3 [kHz]   :	       0.00000

"Correlation"
  2.50000E-005	  3.06093E-001	  3.04108E-001	  0.00000E+000	  0.00000E+000
  5.00000E-005	  3.07973E-001	  3.09845E-001	  0.00000E+000	  0.00000E+000
  7.50000E-005	  3.06993E-001	  3.04444E-001	  0.00000E+000	  0.00000E+000
  1.00000E-004	  3.08904E-001	  3.10511E-001	  0.00000E+000	  0.00000E+000
  1.25000E-004	  3.04796E-001	  3.05459E-001	  0.00000E+000	  0.00000E+000
  1.50000E-004	  3.07381E-001	  3.07025E-001	  0.00000E+000	  0.00000E+000
  1.75000E-004	  3.06220E-001	  3.04192E-001	  0.00000E+000	  0.00000E+000
  2.00000E-004	  3.07038E-001	  3.09593E-001	  0.00000E+000	  0.00000E+000
  2.25000E-004	  3.08988E-001	  3.08118E-001	  0.00000E+000	  0.00000E+000
  2.50000E-004	  3.08176E-001	  3.11171E-001	  0.00000E+000	  0.00000E+000
  2.75000E-004	  3.07474E-001	  3.08636E-001	  0.00000E+000	  0.00000E+000
  3.00000E-004	  3.06524E-001	  3.06980E-001	  0.00000E+000	  0.00000E+000
  3.25000E-004	  3.05679E-001	  3.05143E-001	  0.00000E+000	  0.00000E+000
  3.50000E-004	  3.07694E-001	  3.08299E-001	  0.00000E+000	  0.00000E+000
  3.75000E-004	  3.03105E-001	  3.03706E-001	  0.00000E+000	  0.00000E+000
  4.00000E-004	  3.06884E-001	  3.05922E-001	  0.00000E+000	  0.00000E+000
  4.50000E-004	  3.07009E-001	  3.07442E-001	  0.00000E+000	  0.00000E+000
  5.00000E-004	  3.08277E-001	  3.10858E-001	  0.00000E+000	  0.00000E+000
  5.50000E-004	  3.07788E-001	  3.08270E-001	  0.00000E+000	  0.00000E+000
  6.00000E-004	  3.06672E-001	  3.06275E-001	  0.00000E+000	  0.00000E+000
  6.50000E-004	  3.07211E-001	  3.06074E-001	  0.00000E+000	  0.00000E+000
  7.00000E-004	  3.06231E-001	  3.04887E-001	  0.00000E+000	  0.00000E+000
  7.50000E-004	  3.07018E-001	  3.09098E-001	  0.00000E+000	  0.00000E+000
  8.00000E-004	  3.06060E-001	  3.05941E-001	  0.00000E+000	  0.00000E+000
  9.00000E-004	  3.06368E-001	  3.05490E-001	  0.00000E+000	  0.00000E+000
  1.00000E-003	  3.08649E-001	  3.08733E-001	  0.00000E+000	  0.00000E+000
  1.10000E-003	  3.08059E-001	  3.06546E-001	  0.00000E+000	  0.00000E+000
  1.20000E-003	  3.05454E-001	  3.06110E-001	  0.00000E+000	  0.00000E+000
  1.30000E-003	  3.08353E-001	  3.09009E-001	  0.00000E+000	  0.00000E+000
  1.40000E-003	  3.07031E-001	  3.06449E-001	  0.00000E+000	  0.00000E+000
  1.50000E-003	  3.05009E-001	  3.05544E-001	  0.00000E+000	  0.00000E+000
  1.60000E-003	  3.05567E-001	  3.05205E-001	  0.00000E+000	  0.00000E+000
  1.80000E-003	  3.05872E-001	  3.06579E-001	  0.00000E+000	  0.00000E+000
  2.00000E-003	  3.06305E-001	  3.05804E-001	  0.00000E+000	  0.00000E+000
  2.20000E-003	  3.06955E-001	  3.06723E-001	  0.00000E+000	  0.00000E+000
  2.40000E-003	  3.06934E-001	  3.06552E-001	  0.00000E+000	  0.00000E+000
  2.60000E-003	  3.06656E-001	  3.05895E-001	  0.00000E+000	  0.00000E+000
  2.80000E-003	  3.05606E-001	  3.05112E-001	  0.00000E+000	  0.00000E+000
  3.00000E-003	  3.06395E-001	  3.06407E-001	  0.00000E+000	  0.00000E+000
  3.20000E-003	  3.06866E-001	  3.07212E-001	  0.00000E+000	  0.00000E+000
  3.60000E-003	  3.06797E-001	  3.06689E-001	  0.00000E+000	  0.00000E+000
  4.00000E-003	  3.06290E-001	  3.07574E-001	  0.00000E+000	  0.00000E+000
  4.40000E-003	  3.06506E-001	  3.05606E-001	  0.00000E+000	  0.00000E+000
  4.80000E-003	  3.07060E-001	  3.06507E-001	  0.00000E+000	  0.00000E+000
  5.20000E-003	  3.06177E-001	  3.06579E-001	  0.00000E+000	  0.00000E+000
  5.60000E-003	  3.06568E-001	  3.06087E-001	  0.00000E+000	  0.00000E+000
  6.00000E-003	  3.07204E-001	  3.07023E-001	  0.00000E+000	  0.00000E+000
  6.40000E-003	  3.06420E-001	  3.06056E-001	  0.00000E+000	  0.00000E+000
  7.20000E-003	  3.06366E-001	  3.06202E-001	  0.00000E+000	  0.00000E+000
  8.00000E-003	  3.06605E-001	  3.06770E-001	  0.00000E+000	  0.00000E+000
  8.80000E-003	  3.06076E-001	  3.06071E-001	  0.00000E+000	  0.00000E+000
  9.60000E-003	  3.06558E-001	  3.06477E-001	  0.00000E+000	  0.00000E+000
  1.04000E-002	  3.06646E-001	  3.07182E-001	  0.00000E+000	  0.00000E+000
  1.12000E-002	  3.06747E-001	  3.07130E-001	  0.00000E+000	  0.00000E+000
  1.20000E-002	  3.06770E-001	  3.06496E-001	  0.00000E+000	  0.00000E+000
  1.28000E-002	  3.06400E-001	  3.06265E-001	  0.00000E+000	  0.00000E+000
  1.44000E-002	  3.06072E-001	  3.06363E-001	  0.00000E+000	  0.00000E+000
  1.60000E-002	  3.05949E-001	  3.05636E-001	  0.00000E+000	  0.00000E+000
  1.76000E-002	  3.06195E-001	  3.06652E-001	  0.00000E+000	  0.00000E+000
  1.92000E-002	  3.05697E-001	  3.05978E-001	  0.00000E+000	  0.00000E+000
  2.08000E-002	  3.05601E-001	  3.05464E-001	  0.00000E+000	  0.00000E+000
  2.24000E-002	  3.05975E-001	  3.05882E-001	  0.00000E+000	  0.00000E+000
  2.40000E-002	  3.05758E-001	  3.06070E-001	  0.00000E+000	  0.00000E+000
  2.56000E-002	  3.05533E-001	  3.05775E-001	  0.00000E+000	  0.00000E+000
  2.88000E-002	  3.05786E-001	  3.05865E-001	  0.00000E+000	  0.00000E+000
  3.20000E-002	  3.05872E-001	  3.05924E-001	  0.00000E+000	  0.00000E+000
  3.52000E-002	  3.05272E-001	  3.05433E-001	  0.00000E+000	  0.00000E+000
  3.84000E-002	  3.05313E-001	  3.05454E-001	  0.00000E+000	  0.00000E+000
  4.16000E-002	  3.05084E-001	  3.05451E-001	  0.00000E+000	  0.00000E+000
  4.48000E-002	  3.04817E-001	  3.04842E-001	  0.00000E+000	  0.00000E+000
  4.80000E-002	  3.04981E-001	  3.04943E-001	  0.00000E+000	  0.00000E+000
  5.12000E-002	  3.04723E-001	  3.04856E-001	  0.00000E+000	  0.00000E+000
  5.76000E-002	  3.04542E-001	  3.04614E-001	  0.00000E+000	  0.00000E+000
  6.40000E-002	  3.04323E-001	  3.04412E-001	  0.00000E+000	  0.00000E+000
  7.04000E-002	  3.04189E-001	  3.04296E-001	  0.00000E+000	  0.00000E+000
  7.68000E-002	  3.03679E-001	  3.03392E-001	  0.00000E+000	  0.00000E+000
  8.32000E-002	  3.03531E-001	  3.03649E-001	  0.00000E+000	  0.00000E+000
  8.96000E-002	  3.03435E-001	  3.03633E-001	  0.00000E+000	  0.00000E+000
  9.60000E-002	  3.03088E-001	  3.03134E-001	  0.00000E+000	  0.00000E+000
  1.02400E-001	  3.03026E-001	  3.03082E-001	  0.00000E+000	  0.00000E+000
  1.15200E-001	  3.02499E-001	  3.02545E-001	  0.00000E+000	  0.00000E+000
  1.28000E-001	  3.01943E-001	  3.01854E-001	  0.00000E+000	  0.00000E+000
  1.40800E-001	  3.01542E-001	  3.01457E-001	  0.00000E+000	  0.00000E+000
  1.53600E-001	  3.01029E-001	  3.01093E-001	  0.00000E+000	  0.00000E+000
  1.66400E-001	  3.00654E-001	  3.00602E-001	  0.00000E+000	  0.00000E+000
  1.79200E-001	  3.00069E-001	  2.99937E-001	  0.00000E+000	  0.00000E+000
  1.92000E-001	  2.99722E-001	  2.99795E-001	  0.00000E+000	  0.00000E+000
  2.04800E-001	  2.99180E-001	  2.99271E-001	  0.00000E+000	  0.00000E+000
  2.30400E-001	  2.98390E-001	  2.98470E-001	  0.00000E+000	  0.00000E+000
  2.56000E-001	  2.97431E-001	  2.97502E-001	  0.00000E+000	  0.00000E+000
  2.81600E-001	  2.96672E-001	  2.96671E-001	  0.00000E+000	  0.00000E+000
  3.07200E-001	  2.95872E-001	  2.95915E-001	  0.00000E+000	  0.00000E+000
  3.32800E-001	  2.94998E-001	  2.95062E-001	  0.00000E+000	  0.00000E+000
  3.58400E-001	  2.94181E-001	  2.94282E-001	  0.00000E+000	  0.00000E+000
  3.84000E-001	  2.93294E-001	  2.93429E-001	  0.00000E+000	  0.00000E+000
  4.09600E-001	  2.92447E-001	  2.92572E-001	  0.00000E+000	  0.00000E+000
  4.60800E-001	  2.90800E-001	  2.90876E-001	  0.00000E+000	  0.00000E+000
  5.12000E-001	  2.89287E-001	  2.89343E-001	  0.00000E+000	  0.00000E+000
  5.63200E-001	  2.87518E-001	  2.87681E-001	  0.00000E+000	  0.00000E+000
  6.14400E-001	  2.85929E-001	  2.86005E-001	  0.00000E+000	  0.00000E+000
  6.65600E-001	  2.84338E-001	  2.84453E-001	  0.00000E+000	  0.00000E+000
  7.16800E-001	  2.82780E-001	  2.82933E-001	  0.00000E+000	  0.00000E+000
  7.68000E-001	  2.81206E-001	  2.81403E-001	  0.00000E+000	  0.00000E+000
  8.19200E-001	  2.79562E-001	  2.79750E-001	  0.00000E+000	  0.00000E+000
  9.21600E-001	  2.76568E-001	  2.76765E-001	  0.00000E+000	  0.00000E+000
  1.02400E+000	  2.73713E-001	  2.73905E-001	  0.00000E+000	  0.00000E+000
  1.12640E+000	  2.70805E-001	  2.71070E-001	  0.00000E+000	  0.00000E+000
  1.22880E+000	  2.67957E-001	  2.68202E-001	  0.00000E+000	  0.00000E+000
  1.33120E+000	  2.65140E-001	  2.65483E-001	  0.00000E+000	  0.00000E+000
  1.43360E+000	  2.62360E-001	  2.62642E-001	  0.00000E+000	  0.00000E+000
  1.53600E+000	  2.59568E-001	  2.59885E-001	  0.00000E+000	  0.00000E+000
  1.63840E+000	  2.56829E-001	  2.57125E-001	  0.00000E+000	  0.00000E+000
  1.84320E+000	  2.51594E-001	  2.51883E-001	  0.00000E+000	  0.00000E+000
  2.04800E+000	  2.46454E-001	  2.46711E-001	  0.00000E+000	  0.00000E+000
  2.25280E+000	  2.41488E-001	  2.41701E-001	  0.00000E+000	  0.00000E+000
  2.45760E+000	  2.36683E-001	  2.36820E-001	  0.00000E+000	  0.00000E+000
  2.66240E+000	  2.31994E-001	  2.32131E-001	  0.00000E+000	  0.00000E+000
  2.86720E+000	  2.27421E-001	  2.27544E-001	  0.00000E+000	  0.00000E+000
  3.07200E+000	  2.22902E-001	  2.22935E-001	  0.00000E+000	  0.00000E+000
  3.27680E+000	  2.18468E-001	  2.18469E-001	  0.00000E+000	  0.00000E+000
  3.68640E+000	  2.09919E-001	  2.09935E-001	  0.00000E+000	  0.00000E+000
  4.09600E+000	  2.01674E-001	  2.01595E-001	  0.00000E+000	  0.00000E+000
  4.50560E+000	  1.93746E-001	  1.93551E-001	  0.00000E+000	  0.00000E+000
  4.91520E+000	  1.86080E-001	  1.85850E-001	  0.00000E+000	  0.00000E+000
  5.32480E+000	  1.78836E-001	  1.78579E-001	  0.00000E+000	  0.00000E+000
  5.73440E+000	  1.71900E-001	  1.71626E-001	  0.00000E+000	  0.00000E+000
  6.14400E+000	  1.65207E-001	  1.64918E-001	  0.00000E+000	  0.00000E+000
  6.55360E+000	  1.59007E-001	  1.58731E-001	  0.00000E+000	  0.00000E+000
  7.37280E+000	  1.47109E-001	  1.46805E-001	  0.00000E+000	  0.00000E+000
  8.19200E+000	  1.35690E-001	  1.35424E-001	  0.00000E+000	  0.00000E+000
  9.01120E+000	  1.25029E-001	  1.24720E-001	  0.00000E+000	  0.00000E+000
  9.83040E+000	  1.15535E-001	  1.15209E-001	  0.00000E+000	  0.00000E+000
  1.06496E+001	  1.06900E-001	  1.06618E-001	  0.00000E+000	  0.00000E+000
  1.14688E+001	  9.89164E-002	  9.86744E-002	  0.00000E+000	  0.00000E+000
  1.22880E+001	  9.16695E-002	  9.14296E-002	  0.00000E+000	  0.00000E+000
  1.31072E+001	  8.50181E-002	  8.49404E-002	  0.00000E+000	  0.00000E+000
  1.47456E+001	  7.33661E-002	  7.32604E-002	  0.00000E+000	  0.00000E+000
  1.63840E+001	  6.34012E-002	  6.34026E-002	  0.00000E+000	  0.00000E+000
  1.80224E+001	  5.45219E-002	  5.46398E-002	  0.00000E+000	  0.00000E+000
  1.96608E+001	  4.68971E-002	  4.72432E-002	  0.00000E+000	  0.00000E+000
  2.12992E+001	  4.02790E-002	  4.08161E-002	  0.00000E+000	  0.00000E+000
  2.29376E+001	  3.47726E-002	  3.54823E-002	  0.00000E+000	  0.00000E+000
  2.45760E+001	  2.96825E-002	  3.06080E-002	  0.00000E+000	  0.00000E+000
  2.62144E+001	  2.55711E-002	  2.64560E-002	  0.00000E+000	  0.00000E+000
  2.94912E+001	  1.87766E-002	  2.00317E-002	  0.00000E+000	  0.00000E+000
  3.27680E+001	  1.23592E-002	  1.34902E-002	  0.00000E+000	  0.00000E+000
  3.60448E+001	  6.54918E-003	  8.46627E-003	  0.00000E+000	  0.00000E+000
  3.93216E+001	  2.49079E-003	  5.48208E-003	  0.00000E+000	  0.00000E+000
  4.25984E+001	  2.62265E-004	  3.66854E-003	  0.00000E+000	  0.00000E+000
  4.58752E+001	  5.55341E-004	  2.78220E-003	  0.00000E+000	  0.00000E+000
  4.91520E+001	  6.69063E-004	  1.75734E-003	  0.00000E+000	  0.00000E+000
  5.24288E+001	 -1.98730E-004	  9.46421E-004	  0.00000E+000	  0.00000E+000
  5.89824E+001	 -3.23754E-005	  1.44426E-003	  0.00000E+000	  0.00000E+000
  6.55360E+001	 -6.13083E-004	  6.27335E-004	  0.00000E+000	  0.00000E+000
  7.20896E+001	  9.40671E-004	  2.76304E-003	  0.00000E+000	  0.00000E+000
  7.86432E+001	  1.73911E-003	  3.05340E-003	  0.00000E+000	  0.00000E+000
  8.51968E+001	  3.58953E-003	  5.08479E-003	  0.00000E+000	  0.00000E+000
  9.17504E+001	  2.29256E-003	  3.18503E-003	  0.00000E+000	  0.00000E+000
  9.83040E+001	 -2.68798E-003	 -2.42429E-003	  0.00000E+000	  0.00000E+000
  1.04858E+002	 -3.12633E-003	 -2.12259E-003	  0.00000E+000	  0.00000E+000
  1.17965E+002	 -2.20139E-003	  5.77632E-004	  0.00000E+000	  0.00000E+000
  1.31072E+002	 -2.65303E-003	  6.79077E-004	  0.00000E+000	  0.00000E+000
  1.44179E+002	 -6.94649E-003	 -4.66299E-003	  0.00000E+000	  0.00000E+000
  1.57286E+002	 -5.81472E-003	 -4.81813E-003	  0.00000E+000	  0.00000E+000
  1.70394E+002	 -3.42768E-003	 -5.08794E-004	  0.00000E+000	  0.00000E+000
  1.83501E+002	 -5.84602E-003	 -5.00476E-003	  0.00000E+000	  0.00000E+000
  1.96608E+002	 -6.60460E-003	 -6.64690E-003	  0.00000E+000	  0.00000E+000
  2.09715E+002	 -4.03488E-003	 -2.30101E-003	  0.00000E+000	  0.00000E+000
  2.35930E+002	 -4.57747E-003	 -4.58130E-004	  0.00000E+000	  0.00000E+000
  2.62144E+002	 -1.31220E-003	 -2.88336E-003	  0.00000E+000	  0.00000E+000
  2.88358E+002	 -2.55718E-003	 -4.71629E-003	  0.00000E+000	  0.00000E+000
  3.14573E+002	 -8.58792E-003	 -6.83655E-003	  0.00000E+000	  0.00000E+000
  3.40787E+002	 -1.07369E-002	 -9.00507E-003	  0.00000E+000	  0.00000E+000
  3.67002E+002	 -3.49573E-003	 -2.86737E-003	  0.00000E+000	  0.00000E+000
  3.93216E+002	  5.12396E-004	 -2.77455E-004	  0.00000E+000	  0.00000E+000
  4.19430E+002	  4.57416E-003	  6.56841E-003	  0.00000E+000	  0.00000E+000
  4.71859E+002	 -1.42924E-003	  1.28335E-003	  0.00000E+000	  0.00000E+000
  5.24288E+002	  6.28485E-003	  8.49901E-003	  0.00000E+000	  0.00000E+000
  5.76717E+002	  4.77493E-003	  4.18640E-003	  0.00000E+000	  0.00000E+000
  6.29146E+002	  3.61383E-004	 -2.73319E-004	  0.00000E+000	  0.00000E+000
  6.81574E+002	 -3.02963E-003	 -1.24625E-003	  0.00000E+000	  0.00000E+000
  7.34003E+002	 -5.63003E-003	 -4.31923E-003	  0.00000E+000	  0.00000E+000
  7.86432E+002	 -3.79851E-004	 -3.94727E-004	  0.00000E+000	  0.00000E+000
  8.38861E+002	 -6.31602E-004	 -3.02335E-003	  0.00000E+000	  0.00000E+000
  9.43718E+002	 -6.81972E-004	 -1.90063E-003	  0.00000E+000	  0.00000E+000
  1.04858E+003	  2.99801E-003	  2.12648E-003	  0.00000E+000	  0.00000E+000
  1.15343E+003	  1.67010E-003	  8.10576E-004	  0.00000E+000	  0.00000E+000
  1.25829E+003	 -6.28125E-003	 -7.89673E-003	  0.00000E+000	  0.00000E+000
  1.36315E+003	  1.92032E-003	  6.18348E-005	  0.00000E+000	  0.00000E+000
  1.46801E+003	  2.96810E-003	  4.21124E-003	  0.00000E+000	  0.00000E+000
  1.57286E+003	  3.01089E-003	  3.65834E-003	  0.00000E+000	  0.00000E+000
  1.67772E+003	 -2.55992E-003	 -1.22807E-003	  0.00000E+000	  0.00000E+000
  1.88744E+003	  1.48454E-003	  3.17883E-004	  0.00000E+000	  0.00000E+000
  2.09715E+003	 -6.84397E-004	  2.06845E-003	  0.00000E+000	  0.00000E+000
  2.30687E+003	 -3.86068E-004	 -1.33246E-003	  0.00000E+000	  0.00000E+000
  2.51658E+003	  1.12054E-003	  2.15390E-003	  0.00000E+000	  0.00000E+000
  2.72630E+003	 -1.50356E-003	 -6.78165E-004	  0.00000E+000	  0.00000E+000
  2.93601E+003	  2.06958E-005	 -5.00420E-004	  0.00000E+000	  0.00000E+000
  3.14573E+003	 -3.20183E-003	 -1.44551E-003	  0.00000E+000	  0.00000E+000
  3.35544E+003	 -1.09020E-003	 -2.28971E-003	  0.00000E+000	  0.00000E+000
  3.77487E+003	  1.86809E-003	  1.55813E-003	  0.00000E+000	  0.00000E+000
  4.19430E+003	  5.69101E-004	  1.90617E-004	  0.00000E+000	  0.00000E+000
  4.61373E+003	 -2.05597E-004	  1.93417E-004	  0.00000E+000	  0.00000E+000
  5.03317E+003	  2.54607E-003	  2.48516E-003	  0.00000E+000	  0.00000E+000
  5.45260E+003	 -6.53559E-004	 -8.35317E-004	  0.00000E+000	  0.00000E+000
  5.87203E+003	 -4.77517E-004	 -5.91063E-004	  0.00000E+000	  0.00000E+000

"Count Rate"
       0.12891	     484.41846	     343.95325	       0.00000	       0.00000
       0.25781	     639.32654	     417.07520	       0.00000	       0.00000
       0.38672	     289.47052	     242.56602	       0.00000	       0.00000
       0.51563	     375.96494	     292.60419	       0.00000	       0.00000
       0.64453	     448.35779	     318.25543	       0.00000	       0.00000
       0.77344	     644.67865	     478.91122	       0.00000	       0.00000
       0.90234	     620.33826	     495.16916	       0.00000	       0.00000
       1.03125	     519.27686	     425.22745	       0.00000	       0.00000
       1.16016	     436.12552	     334.62973	       0.00000	       0.00000
       1.28906	     538.93994	     393.51825	       0.00000	       0.00000
       1.41797	     608.88171	     469.92126	       0.00000	       0.00000
       1.54688	     451.57678	     333.79202	       0.00000	       0.00000
       1.67578	     536.06226	     502.17343	       0.00000	       0.00000
       1.80469	     571.61871	     430.26926	       0.00000	       0.00000
       1.93359	     591.46802	     515.53815	       0.00000	       0.00000
       2.06250	     436.42804	     348.00220	       0.00000	       0.00000
       2.19141	     488.19595	     406.34000	       0.00000	       0.00000
       2.32031	     522.89923	     360.40509	       0.00000	       0.00000
       2.44922	     465.18970	     426.98819	       0.00000	       0.00000
       2.57813	     412.98743	     345.96997	       0.00000	       0.00000
       2.70703	     463.79352	     292.91446	       0.00000	       0.00000
       2.83594	     468.31564	     325.57773	       0.00000	       0.00000
       2.96484	     606.41510	     441.95078	       0.00000	       0.00000
       3.09375	     416.89679	     324.36768	       0.00000	       0.00000
       3.22266	     468.77328	     377.94287	       0.00000	       0.00000
       3.35156	     546.67334	     351.84952	       0.00000	       0.00000
       3.48047	     738.80560	     663.10071	       0.00000	       0.00000
       3.60938	     481.13739	     393.61133	       0.00000	       0.00000
       3.73828	     413.57693	     380.54135	       0.00000	       0.00000
       3.86719	     466.76431	     436.26517	       0.00000	       0.00000
       3.99609	     602.69965	     485.28720	       0.00000	       0.00000
       4.12500	     349.22775	     270.73044	       0.00000	       0.00000
       4.25391	     603.52960	     554.94971	       0.00000	       0.00000
       4.38281	     748.64105	     511.79944	       0.00000	       0.00000
       4.51172	     363.08890	     331.42624	       0.00000	       0.00000
       4.64063	     361.69269	     300.14365	       0.00000	       0.00000
       4.76953	     494.01343	     434.79138	       0.00000	       0.00000
       4.89844	     629.98755	     496.65070	       0.00000	       0.00000
       5.02734	     509.20096	     425.82471	       0.00000	       0.00000
       5.15625	     592.98053	     503.70148	       0.00000	       0.00000
       5.28516	     421.47321	     396.16327	       0.00000	       0.00000
       5.41406	     825.34662	     636.09204	       0.00000	       0.00000
       5.54297	     401.42227	     325.66306	       0.00000	       0.00000
       5.67188	     362.29773	     278.42505	       0.00000	       0.00000
       5.80078	     323.70837	     234.60771	       0.00000	       0.00000
       5.92969	     546.04504	     383.45010	       0.00000	       0.00000
       6.05859	     528.50726	     370.01559	       0.00000	       0.00000
       6.18750	     388.92630	     303.26959	       0.00000	       0.00000
       6.31641	     423.16415	     267.58899	       0.00000	       0.00000
       6.44531	     595.64886	     392.99854	       0.00000	       0.00000
       6.57422	     681.77869	     672.00531	       0.00000	       0.00000
       6.70313	     416.53998	     289.64114	       0.00000	       0.00000
       6.83203	     342.92160	     296.83157	       0.00000	       0.00000
       6.96094	     356.12341	     346.51294	       0.00000	       0.00000
       7.08984	     478.07352	     380.76630	       0.00000	       0.00000
       7.21875	     387.34393	     321.81573	       0.00000	       0.00000
       7.34766	     306.48083	     240.12268	       0.00000	       0.00000
       7.47656	     455.47839	     390.24493	       0.00000	       0.00000
       7.60547	     529.81036	     399.38226	       0.00000	       0.00000
       7.73438	     454.07443	     339.98959	       0.00000	       0.00000
       7.86328	     629.40582	     484.44946	       0.00000	       0.00000
       7.99219	     508.58041	     517.41522	       0.00000	       0.00000
       8.12109	     375.76328	     268.73697	       0.00000	       0.00000
       8.25000	     750.50262	     691.33490	       0.00000	       0.00000
       8.37891	     490.54620	     309.33530	       0.00000	       0.00000
       8.50781	     523.79895	     373.83185	       0.00000	       0.00000
       8.63672	     671.36926	     489.04916	       0.00000	       0.00000
       8.76563	     519.69568	     477.26682	       0.00000	       0.00000
       8.89453	     554.46100	     537.43518	       0.00000	       0.00000
       9.02344	     456.75824	     372.79248	       0.00000	       0.00000
       9.15234	     454.07443	     339.32251	       0.00000	       0.00000
       9.28125	     428.98166	     352.06668	       0.00000	       0.00000
       9.41016	     444.47946	     352.82684	       0.00000	       0.00000
       9.53906	     337.18167	     287.29865	       0.00000	       0.00000
       9.66797	     477.30560	     349.50699	       0.00000	       0.00000
       9.79688	     630.11163	     456.29282	       0.00000	       0.00000
       9.92578	     640.25732	     512.48199	       0.00000	       0.00000
      10.05469	     530.88080	     411.06378	       0.00000	       0.00000
      10.18359	     444.05283	     446.75214	       0.00000	       0.00000
      10.31250	     516.91107	     449.23428	       0.00000	       0.00000
      10.44141	     657.81842	     608.54816	       0.00000	       0.00000
      10.57031	     429.26089	     353.36981	       0.00000	       0.00000
      10.69922	     420.20111	     304.20038	       0.00000	       0.00000
      10.82813	     385.65298	     330.23172	       0.00000	       0.00000
      10.95703	     384.68341	     284.57605	       0.00000	       0.00000
      11.08594	     386.87079	     300.08936	       0.00000	       0.00000
      11.21484	     522.79059	     442.34637	       0.00000	       0.00000
      11.34375	     494.01343	     409.81497	       0.00000	       0.00000
      11.47266	     554.47656	     478.04248	       0.00000	       0.00000
      11.60156	     455.95154	     318.27097	       0.00000	       0.00000
      11.73047	     442.50925	     356.16995	       0.00000	       0.00000
      11.85938	     371.29544	     320.24115	       0.00000	       0.00000
      11.98828	     419.40219	     306.21713	       0.00000	       0.00000
      12.11719	     329.64996	     265.78946	       0.00000	       0.00000
      12.24609	     480.19882	     402.07382	       0.00000	       0.00000
      12.37500	     414.81802	     342.34760	       0.00000	       0.00000
      12.50391	     359.19507	     290.33148	       0.00000	       0.00000
      12.63281	     477.27457	     414.94211	       0.00000	       0.00000
      12.76172	     424.54486	     364.05847	       0.00000	       0.00000
      12.89063	     472.15518	     452.01117	       0.00000	       0.00000
      13.01953	     560.22424	     414.87231	       0.00000	       0.00000
      13.14844	     473.59015	     352.38470	       0.00000	       0.00000
      13.27734	     449.28082	     338.15125	       0.00000	       0.00000
      13.40625	     391.88159	     320.18686	       0.00000	       0.00000
      13.53516	     504.60901	     429.55563	       0.00000	       0.00000
      13.66406	     621.25354	     446.51169	       0.00000	       0.00000
      13.79297	     540.03363	     402.28326	       0.00000	       0.00000
      13.92188	     501.11078	     393.34760	       0.00000	       0.00000
      14.05078	     550.92401	     359.10199	       0.00000	       0.00000
      14.17969	     425.42911	     357.73682	       0.00000	       0.00000
      14.30859	     407.72067	     344.84525	       0.00000	       0.00000
      14.43750	     365.29953	     266.23932	       0.00000	       0.00000
      14.56641	     429.09799	     362.92599	       0.00000	       0.00000
      14.69531	     554.68597	     423.90106	       0.00000	       0.00000
      14.82422	     603.24261	     561.31787	       0.00000	       0.00000
      14.95313	     315.01315	     241.34824	       0.00000	       0.00000
      15.08203	     415.38425	     329.66547	       0.00000	       0.00000
      15.21094	     461.48978	     413.44507	       0.00000	       0.00000
      15.33984	     384.64462	     302.19919	       0.00000	       0.00000
      15.46875	     522.62775	     340.70319	       0.00000	       0.00000
      15.59766	     401.30591	     326.18274	       0.00000	       0.00000
      15.72656	     455.31549	     375.86411	       0.00000	       0.00000
      15.85547	     371.64447	     311.60025	       0.00000	       0.00000
      15.98438	     517.26788	     420.69754	       0.00000	       0.00000
      16.11328	     347.73849	     265.09912	       0.00000	       0.00000
      16.24219	     628.11041	     468.86636	       0.00000	       0.00000
      16.37109	     576.51318	     421.53528	       0.00000	       0.00000
      16.50000	     433.76752	     339.28372	       0.00000	       0.00000
      16.62891	     481.73465	     383.34152	       0.00000	       0.00000
      16.75781	     607.22174	     512.17175	       0.00000	       0.00000
      16.88672	     401.03442	     340.48602	       0.00000	       0.00000
      17.01563	     522.23212	     397.78439	       0.00000	       0.00000
      17.14453	     441.19839	     344.69788	       0.00000	       0.00000
      17.27344	     377.95065	     281.91553	       0.00000	       0.00000
      17.40234	     369.84494	     317.26260	       0.00000	       0.00000
      17.53125	     467.34607	     389.69421	       0.00000	       0.00000
      17.66016	     541.18164	     429.29193	       0.00000	       0.00000
      17.78906	     543.98181	     446.93054	       0.00000	       0.00000
      17.91797	     594.25262	     433.26334	       0.00000	       0.00000
      18.04688	     332.90775	     271.31995	       0.00000	       0.00000
      18.17578	     444.32431	     346.88525	       0.00000	       0.00000
      18.30469	     656.34467	     553.20447	       0.00000	       0.00000
      18.43359	     480.19107	     410.50531	       0.00000	       0.00000
      18.56250	     348.30472	     277.42444	       0.00000	       0.00000
      18.69141	     326.29910	     295.26474	       0.00000	       0.00000
      18.82031	     381.96082	     313.86517	       0.00000	       0.00000
      18.94922	     444.78970	     347.68417	       0.00000	       0.00000
      19.07813	     489.28186	     316.78168	       0.00000	       0.00000
      19.20703	     630.87958	     589.02466	       0.00000	       0.00000
      19.33594	     441.47763	     379.91309	       0.00000	       0.00000
      19.46484	     395.51947	     295.85422	       0.00000	       0.00000
      19.59375	     445.38696	     352.82684	       0.00000	       0.00000
      19.72266	     471.99228	     478.37601	       0.00000	       0.00000
      19.85156	     447.15549	     472.10864	       0.00000	       0.00000
      19.98047	     502.80173	     423.74591	       0.00000	       0.00000
      20.10938	     401.07321	     307.40390	       0.00000	       0.00000
      20.23828	     483.32477	     379.77347	       0.00000	       0.00000
      20.36719	     616.27380	     544.21448	       0.00000	       0.00000
      20.49609	     552.76233	     457.33221	       0.00000	       0.00000
      20.62500	     447.11670	     371.84616	       0.00000	       0.00000
      20.75391	     271.54489	     213.67250	       0.00000	       0.00000
      20.88281	     448.04752	     415.36874	       0.00000	       0.00000
      21.01172	     737.54901	     619.60138	       0.00000	       0.00000
      21.14063	     561.57385	     452.69376	       0.00000	       0.00000
      21.26953	     477.73221	     358.44266	       0.00000	       0.00000
      21.39844	     426.07291	     344.86853	       0.00000	       0.00000
      21.52734	     626.07819	     489.42926	       0.00000	       0.00000
      21.65625	     480.77283	     409.81497	       0.00000	       0.00000
      21.78516	     323.66959	     239.09105	       0.00000	       0.00000
      21.91406	     642.01813	     490.79440	       0.00000	       0.00000
      22.04297	     526.05615	     435.16370	       0.00000	       0.00000
      22.17188	     560.93781	     422.07047	       0.00000	       0.00000
      22.30078	     499.28796	     411.75412	       0.00000	       0.00000
      22.42969	     547.91443	     485.66727	       0.00000	       0.00000
      22.55859	     427.05801	     380.01392	       0.00000	       0.00000
      22.68750	     470.30133	     463.21951	       0.00000	       0.00000
      22.81641	     342.02182	     368.06866	       0.00000	       0.00000
      22.94531	     519.00537	     434.10880	       0.00000	       0.00000
      23.07422	     240.41743	     204.48863	       0.00000	       0.00000
      23.20313	     424.42850	     312.11993	       0.00000	       0.00000
      23.33203	     416.57101	     338.69421	       0.00000	       0.00000
      23.46094	     708.85718	     532.88202	       0.00000	       0.00000
      23.58984	     548.68231	     440.38394	       0.00000	       0.00000
      23.71875	     485.32599	     423.07886	       0.00000	       0.00000
      23.84766	     350.80237	     325.02701	       0.00000	       0.00000
      23.97656	     543.88873	     504.72537	       0.00000	       0.00000
      24.10547	     411.29648	     332.51993	       0.00000	       0.00000
      24.23438	     632.41541	     547.00690	       0.00000	       0.00000
      24.36328	     502.03381	     455.94379	       0.00000	       0.00000
      24.49219	     626.16351	     502.93359	       0.00000	       0.00000
      24.62109	     275.67142	     225.88922	       0.00000	       0.00000
      24.75000	     574.03882	     450.09528	       0.00000	       0.00000
      24.87891	     565.77795	     463.60736	       0.00000	       0.00000
      25.00781	     485.76810	     403.77252	       0.00000	       0.00000
      25.13672	     482.42499	     366.86639	       0.00000	       0.00000
      25.26563	     446.72113	     382.09268	       0.00000	       0.00000
      25.39453	     323.00250	     258.50595	       0.00000	       0.00000
      25.52344	     461.97845	     360.57574	       0.00000	       0.00000
      25.65234	     594.45435	     520.82819	       0.00000	       0.00000
      25.78125	     461.32690	     365.38486	       0.00000	       0.00000
      25.91016	     508.34772	     386.80099	       0.00000	       0.00000
      26.03906	     546.30103	     445.69724	       0.00000	       0.00000
      26.16797	     603.30469	     560.61206	       0.00000	       0.00000
      26.29688	     529.98102	     443.19958	       0.00000	       0.00000
      26.42578	     472.58179	     394.96097	       0.00000	       0.00000
      26.55469	     623.96063	     438.13449	       0.00000	       0.00000
      26.68359	     420.00720	     421.57407	       0.00000	       0.00000
      26.81250	     493.03610	     402.54700	       0.00000	       0.00000
      26.94141	     417.23810	     389.16675	       0.00000	       0.00000
      27.07031	     433.11597	     329.06821	       0.00000	       0.00000
      27.19922	     488.15717	     413.24341	       0.00000	       0.00000
      27.32813	     374.82471	     282.62915	       0.00000	       0.00000
      27.45703	     419.20053	     330.78244	       0.00000	       0.00000
      27.58594	     395.32553	     262.19812	       0.00000	       0.00000
      27.71484	     480.26865	     420.75186	       0.00000	       0.00000
      27.84375	     438.02591	     413.42957	       0.00000	       0.00000
      27.97266	     489.01816	     414.89557	       0.00000	       0.00000
      28.10156	     507.10666	     361.60736	       0.00000	       0.00000
      28.23047	     429.15231	     343.20084	       0.00000	       0.00000
      28.35938	     296.74625	     233.18048	       0.00000	       0.00000
      28.48828	     523.72919	     407.41815	       0.00000	       0.00000
      28.61719	     412.28159	     371.79962	       0.00000	       0.00000
      28.74609	     804.94659	     588.41962	       0.00000	       0.00000
      28.87500	     387.87915	     375.62366	       0.00000	       0.00000
      29.00391	     418.38608	     336.03369	       0.00000	       0.00000
      29.13281	     446.60477	     331.29437	       0.00000	       0.00000
      29.26172	     575.60565	     446.24020	       0.00000	       0.00000
      29.39063	     419.31686	     338.03491	       0.00000	       0.00000
      29.51953	     429.05923	     331.61240	       0.00000	       0.00000
      29.64844	     367.13788	     307.09363	       0.00000	       0.00000
      29.77734	     578.42908	     430.72690	       0.00000	       0.00000
      29.90625	     667.50647	     502.47592	       0.00000	       0.00000
      30.03516	     412.72372	     338.20557	       0.00000	       0.00000
      30.16406	     632.76440	     450.02545	       0.00000	       0.00000
      30.29297	     371.62122	     290.89774	       0.00000	       0.00000
      30.42188	     569.15210	     475.28888	       0.00000	       0.00000
      30.55078	     583.14514	     423.59079	       0.00000	       0.00000
      30.67969	     382.75201	     366.85086	       0.00000	       0.00000
      30.80859	     552.75458	     523.85327	       0.00000	       0.00000
      30.93750	     381.44113	     286.45316	       0.00000	       0.00000
      31.06641	     392.44006	     302.24573	       0.00000	       0.00000
      31.19531	     426.93390	     343.63522	       0.00000	       0.00000
      31.32422	     555.18237	     457.63474	       0.00000	       0.00000
      31.45313	     389.62439	     313.58594	       0.00000	       0.00000
      31.58203	     437.48294	     332.10883	       0.00000	       0.00000
      31.71094	     640.36597	     552.26587	       0.00000	       0.00000
      31.83984	     271.28891	     249.93484	       0.00000	       0.00000
      31.96875	     422.34195	     382.89163	       0.00000	       0.00000
      32.09766	     451.22772	     356.13895	       0.00000	       0.00000
      32.22656	     563.60614	     399.63824	       0.00000	       0.00000
      32.35547	     533.32416	     409.94684	       0.00000	       0.00000
      32.48438	     327.74182	     260.96481	       0.00000	       0.00000
      32.61328	     567.28278	     405.65741	       0.00000	       0.00000
      32.74219	     391.55582	     350.81787	       0.00000	       0.00000

Monitor Diode	   3003.63
