ALV-7004 or ALV-7004/FAST Data
Date :	"04.06.2015"
Time :	"16:11:25"
Samplename : 	""
SampMemo(0) : 	""
SampMemo(1) : 	""
SampMemo(2) : 	""
SampMemo(3) : 	""
SampMemo(4) : 	""
SampMemo(5) : 	""
SampMemo(6) : 	""
SampMemo(7) : 	""
SampMemo(8) : 	""
SampMemo(9) : 	""
Temperature [K] :	     297.93461
Viscosity [cp]  :	       0.89000
Refractive Index:	       1.33200
Wavelength [nm] :	     632.80000
Angle [°]       :	      49.70000
Duration [s]    :	        32
Runs            :	         1
Mode            :	"C-CH0/1+1/0 "
MeanCR0 [kHz]   :	     362.47986
MeanCR1 [kHz]   :	     264.26373
MeanCR2 [kHz]   :	       0.00000
MeanCR3 [kHz]   :	       0.00000

"Correlation"
  2.50000E-005	  3.13247E-001	  3.05032E-001	  0.00000E+000	  0.00000E+000
  5.00000E-005	  3.13476E-001	  3.15136E-001	  0.00000E+000	  0.00000E+000
  7.50000E-005	  3.14467E-001	  3.11305E-001	  0.00000E+000	  0.00000E+000
  1.00000E-004	  3.10032E-001	  3.09166E-001	  0.00000E+000	  0.00000E+000
  1.25000E-004	  3.13772E-001	  3.14651E-001	  0.00000E+000	  0.00000E+000
  1.50000E-004	  3.05544E-001	  3.04691E-001	  0.00000E+000	  0.00000E+000
  1.75000E-004	  3.10970E-001	  3.14874E-001	  0.00000E+000	  0.00000E+000
  2.00000E-004	  3.09874E-001	  3.13693E-001	  0.00000E+000	  0.00000E+000
  2.25000E-004	  3.17794E-001	  3.20438E-001	  0.00000E+000	  0.00000E+000
  2.50000E-004	  3.10320E-001	  3.08418E-001	  0.00000E+000	  0.00000E+000
  2.75000E-004	  3.12276E-001	  3.13234E-001	  0.00000E+000	  0.00000E+000
  3.00000E-004	  3.14119E-001	  3.13916E-001	  0.00000E+000	  0.00000E+000
  3.25000E-004	  3.14316E-001	  3.11908E-001	  0.00000E+000	  0.00000E+000
  3.50000E-004	  3.16875E-001	  3.14716E-001	  0.00000E+000	  0.00000E+000
  3.75000E-004	  3.11895E-001	  3.07880E-001	  0.00000E+000	  0.00000E+000
  4.00000E-004	  3.09300E-001	  3.06554E-001	  0.00000E+000	  0.00000E+000
  4.50000E-004	  3.10458E-001	  3.10281E-001	  0.00000E+000	  0.00000E+000
  5.00000E-004	  3.10776E-001	  3.15110E-001	  0.00000E+000	  0.00000E+000
  5.50000E-004	  3.13463E-001	  3.11862E-001	  0.00000E+000	  0.00000E+000
  6.00000E-004	  3.09946E-001	  3.07820E-001	  0.00000E+000	  0.00000E+000
  6.50000E-004	  3.12135E-001	  3.11869E-001	  0.00000E+000	  0.00000E+000
  7.00000E-004	  3.12492E-001	  3.13457E-001	  0.00000E+000	  0.00000E+000
  7.50000E-004	  3.09572E-001	  3.10156E-001	  0.00000E+000	  0.00000E+000
  8.00000E-004	  3.09302E-001	  3.07181E-001	  0.00000E+000	  0.00000E+000
  9.00000E-004	  3.10717E-001	  3.09723E-001	  0.00000E+000	  0.00000E+000
  1.00000E-003	  3.12402E-001	  3.12292E-001	  0.00000E+000	  0.00000E+000
  1.10000E-003	  3.08669E-001	  3.05435E-001	  0.00000E+000	  0.00000E+000
  1.20000E-003	  3.11775E-001	  3.14139E-001	  0.00000E+000	  0.00000E+000
  1.30000E-003	  3.13688E-001	  3.13988E-001	  0.00000E+000	  0.00000E+000
  1.40000E-003	  3.13435E-001	  3.12295E-001	  0.00000E+000	  0.00000E+000
  1.50000E-003	  3.11866E-001	  3.13890E-001	  0.00000E+000	  0.00000E+000
  1.60000E-003	  3.09253E-001	  3.08488E-001	  0.00000E+000	  0.00000E+000
  1.80000E-003	  3.12356E-001	  3.12082E-001	  0.00000E+000	  0.00000E+000
  2.00000E-003	  3.10188E-001	  3.08677E-001	  0.00000E+000	  0.00000E+000
  2.20000E-003	  3.11013E-001	  3.10207E-001	  0.00000E+000	  0.00000E+000
  2.40000E-003	  3.12673E-001	  3.12848E-001	  0.00000E+000	  0.00000E+000
  2.60000E-003	  3.11328E-001	  3.13640E-001	  0.00000E+000	  0.00000E+000
  2.80000E-003	  3.12762E-001	  3.12263E-001	  0.00000E+000	  0.00000E+000
  3.00000E-003	  3.11243E-001	  3.12005E-001	  0.00000E+000	  0.00000E+000
  3.20000E-003	  3.11615E-001	  3.12295E-001	  0.00000E+000	  0.00000E+000
  3.60000E-003	  3.10853E-001	  3.09958E-001	  0.00000E+000	  0.00000E+000
  4.00000E-003	  3.10823E-001	  3.11040E-001	  0.00000E+000	  0.00000E+000
  4.40000E-003	  3.11446E-001	  3.11505E-001	  0.00000E+000	  0.00000E+000
  4.80000E-003	  3.11488E-001	  3.11524E-001	  0.00000E+000	  0.00000E+000
  5.20000E-003	  3.11884E-001	  3.11810E-001	  0.00000E+000	  0.00000E+000
  5.60000E-003	  3.11620E-001	  3.11703E-001	  0.00000E+000	  0.00000E+000
  6.00000E-003	  3.11666E-001	  3.12480E-001	  0.00000E+000	  0.00000E+000
  6.40000E-003	  3.11658E-001	  3.12886E-001	  0.00000E+000	  0.00000E+000
  7.20000E-003	  3.11476E-001	  3.11181E-001	  0.00000E+000	  0.00000E+000
  8.00000E-003	  3.11298E-001	  3.10740E-001	  0.00000E+000	  0.00000E+000
  8.80000E-003	  3.10867E-001	  3.10740E-001	  0.00000E+000	  0.00000E+000
  9.60000E-003	  3.10897E-001	  3.10855E-001	  0.00000E+000	  0.00000E+000
  1.04000E-002	  3.11225E-001	  3.11529E-001	  0.00000E+000	  0.00000E+000
  1.12000E-002	  3.11296E-001	  3.10958E-001	  0.00000E+000	  0.00000E+000
  1.20000E-002	  3.10979E-001	  3.10535E-001	  0.00000E+000	  0.00000E+000
  1.28000E-002	  3.11463E-001	  3.10930E-001	  0.00000E+000	  0.00000E+000
  1.44000E-002	  3.10986E-001	  3.10789E-001	  0.00000E+000	  0.00000E+000
  1.60000E-002	  3.11260E-001	  3.11192E-001	  0.00000E+000	  0.00000E+000
  1.76000E-002	  3.10887E-001	  3.11022E-001	  0.00000E+000	  0.00000E+000
  1.92000E-002	  3.11339E-001	  3.10678E-001	  0.00000E+000	  0.00000E+000
  2.08000E-002	  3.11015E-001	  3.10495E-001	  0.00000E+000	  0.00000E+000
  2.24000E-002	  3.11852E-001	  3.11512E-001	  0.00000E+000	  0.00000E+000
  2.40000E-002	  3.10832E-001	  3.11319E-001	  0.00000E+000	  0.00000E+000
  2.56000E-002	  3.10464E-001	  3.10500E-001	  0.00000E+000	  0.00000E+000
  2.88000E-002	  3.10617E-001	  3.10842E-001	  0.00000E+000	  0.00000E+000
  3.20000E-002	  3.10219E-001	  3.10233E-001	  0.00000E+000	  0.00000E+000
  3.52000E-002	  3.09853E-001	  3.10427E-001	  0.00000E+000	  0.00000E+000
  3.84000E-002	  3.09777E-001	  3.09646E-001	  0.00000E+000	  0.00000E+000
  4.16000E-002	  3.09842E-001	  3.10343E-001	  0.00000E+000	  0.00000E+000
  4.48000E-002	  3.09460E-001	  3.09687E-001	  0.00000E+000	  0.00000E+000
  4.80000E-002	  3.09908E-001	  3.10092E-001	  0.00000E+000	  0.00000E+000
  5.12000E-002	  3.09684E-001	  3.09824E-001	  0.00000E+000	  0.00000E+000
  5.76000E-002	  3.09099E-001	  3.09397E-001	  0.00000E+000	  0.00000E+000
  6.40000E-002	  3.08679E-001	  3.08976E-001	  0.00000E+000	  0.00000E+000
  7.04000E-002	  3.08449E-001	  3.08147E-001	  0.00000E+000	  0.00000E+000
  7.68000E-002	  3.08341E-001	  3.08304E-001	  0.00000E+000	  0.00000E+000
  8.32000E-002	  3.07812E-001	  3.07725E-001	  0.00000E+000	  0.00000E+000
  8.96000E-002	  3.07764E-001	  3.07826E-001	  0.00000E+000	  0.00000E+000
  9.60000E-002	  3.06947E-001	  3.07073E-001	  0.00000E+000	  0.00000E+000
  1.02400E-001	  3.06927E-001	  3.07268E-001	  0.00000E+000	  0.00000E+000
  1.15200E-001	  3.06078E-001	  3.06181E-001	  0.00000E+000	  0.00000E+000
  1.28000E-001	  3.05826E-001	  3.05838E-001	  0.00000E+000	  0.00000E+000
  1.40800E-001	  3.05082E-001	  3.04912E-001	  0.00000E+000	  0.00000E+000
  1.53600E-001	  3.04524E-001	  3.04477E-001	  0.00000E+000	  0.00000E+000
  1.66400E-001	  3.04019E-001	  3.04237E-001	  0.00000E+000	  0.00000E+000
  1.79200E-001	  3.03456E-001	  3.03268E-001	  0.00000E+000	  0.00000E+000
  1.92000E-001	  3.02847E-001	  3.02841E-001	  0.00000E+000	  0.00000E+000
  2.04800E-001	  3.02161E-001	  3.02172E-001	  0.00000E+000	  0.00000E+000
  2.30400E-001	  3.00970E-001	  3.01086E-001	  0.00000E+000	  0.00000E+000
  2.56000E-001	  2.99890E-001	  2.99897E-001	  0.00000E+000	  0.00000E+000
  2.81600E-001	  2.98817E-001	  2.98851E-001	  0.00000E+000	  0.00000E+000
  3.07200E-001	  2.97700E-001	  2.97818E-001	  0.00000E+000	  0.00000E+000
  3.32800E-001	  2.96615E-001	  2.96832E-001	  0.00000E+000	  0.00000E+000
  3.58400E-001	  2.95666E-001	  2.95789E-001	  0.00000E+000	  0.00000E+000
  3.84000E-001	  2.94452E-001	  2.94371E-001	  0.00000E+000	  0.00000E+000
  4.09600E-001	  2.93472E-001	  2.93514E-001	  0.00000E+000	  0.00000E+000
  4.60800E-001	  2.91370E-001	  2.91542E-001	  0.00000E+000	  0.00000E+000
  5.12000E-001	  2.89176E-001	  2.89242E-001	  0.00000E+000	  0.00000E+000
  5.63200E-001	  2.86937E-001	  2.86998E-001	  0.00000E+000	  0.00000E+000
  6.14400E-001	  2.84786E-001	  2.84983E-001	  0.00000E+000	  0.00000E+000
  6.65600E-001	  2.82705E-001	  2.82853E-001	  0.00000E+000	  0.00000E+000
  7.16800E-001	  2.80740E-001	  2.80916E-001	  0.00000E+000	  0.00000E+000
  7.68000E-001	  2.78768E-001	  2.78935E-001	  0.00000E+000	  0.00000E+000
  8.19200E-001	  2.76879E-001	  2.77061E-001	  0.00000E+000	  0.00000E+000
  9.21600E-001	  2.73071E-001	  2.73364E-001	  0.00000E+000	  0.00000E+000
  1.02400E+000	  2.69115E-001	  2.69288E-001	  0.00000E+000	  0.00000E+000
  1.12640E+000	  2.65505E-001	  2.65735E-001	  0.00000E+000	  0.00000E+000
  1.22880E+000	  2.61808E-001	  2.62144E-001	  0.00000E+000	  0.00000E+000
  1.33120E+000	  2.58343E-001	  2.58657E-001	  0.00000E+000	  0.00000E+000
  1.43360E+000	  2.54900E-001	  2.55210E-001	  0.00000E+000	  0.00000E+000
  1.53600E+000	  2.51399E-001	  2.51845E-001	  0.00000E+000	  0.00000E+000
  1.63840E+000	  2.47954E-001	  2.48375E-001	  0.00000E+000	  0.00000E+000
  1.84320E+000	  2.41322E-001	  2.41728E-001	  0.00000E+000	  0.00000E+000
  2.04800E+000	  2.34941E-001	  2.35419E-001	  0.00000E+000	  0.00000E+000
  2.25280E+000	  2.28639E-001	  2.29099E-001	  0.00000E+000	  0.00000E+000
  2.45760E+000	  2.22662E-001	  2.23206E-001	  0.00000E+000	  0.00000E+000
  2.66240E+000	  2.16807E-001	  2.17298E-001	  0.00000E+000	  0.00000E+000
  2.86720E+000	  2.11142E-001	  2.11744E-001	  0.00000E+000	  0.00000E+000
  3.07200E+000	  2.05716E-001	  2.06454E-001	  0.00000E+000	  0.00000E+000
  3.27680E+000	  2.00488E-001	  2.01303E-001	  0.00000E+000	  0.00000E+000
  3.68640E+000	  1.90430E-001	  1.91521E-001	  0.00000E+000	  0.00000E+000
  4.09600E+000	  1.80991E-001	  1.82214E-001	  0.00000E+000	  0.00000E+000
  4.50560E+000	  1.72061E-001	  1.73351E-001	  0.00000E+000	  0.00000E+000
  4.91520E+000	  1.63610E-001	  1.65105E-001	  0.00000E+000	  0.00000E+000
  5.32480E+000	  1.55576E-001	  1.57156E-001	  0.00000E+000	  0.00000E+000
  5.73440E+000	  1.47968E-001	  1.49632E-001	  0.00000E+000	  0.00000E+000
  6.14400E+000	  1.40827E-001	  1.42525E-001	  0.00000E+000	  0.00000E+000
  6.55360E+000	  1.34196E-001	  1.35901E-001	  0.00000E+000	  0.00000E+000
  7.37280E+000	  1.21762E-001	  1.23714E-001	  0.00000E+000	  0.00000E+000
  8.19200E+000	  1.10532E-001	  1.12553E-001	  0.00000E+000	  0.00000E+000
  9.01120E+000	  9.99689E-002	  1.02001E-001	  0.00000E+000	  0.00000E+000
  9.83040E+000	  9.05129E-002	  9.26250E-002	  0.00000E+000	  0.00000E+000
  1.06496E+001	  8.23191E-002	  8.44782E-002	  0.00000E+000	  0.00000E+000
  1.14688E+001	  7.52071E-002	  7.74956E-002	  0.00000E+000	  0.00000E+000
  1.22880E+001	  6.88545E-002	  7.11745E-002	  0.00000E+000	  0.00000E+000
  1.31072E+001	  6.32394E-002	  6.55452E-002	  0.00000E+000	  0.00000E+000
  1.47456E+001	  5.40102E-002	  5.61063E-002	  0.00000E+000	  0.00000E+000
  1.63840E+001	  4.68433E-002	  4.86041E-002	  0.00000E+000	  0.00000E+000
  1.80224E+001	  4.12382E-002	  4.28794E-002	  0.00000E+000	  0.00000E+000
  1.96608E+001	  3.68152E-002	  3.87054E-002	  0.00000E+000	  0.00000E+000
  2.12992E+001	  3.36157E-002	  3.59926E-002	  0.00000E+000	  0.00000E+000
  2.29376E+001	  3.15164E-002	  3.43355E-002	  0.00000E+000	  0.00000E+000
  2.45760E+001	  2.91606E-002	  3.21877E-002	  0.00000E+000	  0.00000E+000
  2.62144E+001	  2.66115E-002	  2.97649E-002	  0.00000E+000	  0.00000E+000
  2.94912E+001	  2.34642E-002	  2.70345E-002	  0.00000E+000	  0.00000E+000
  3.27680E+001	  2.13163E-002	  2.48277E-002	  0.00000E+000	  0.00000E+000
  3.60448E+001	  1.86613E-002	  2.21312E-002	  0.00000E+000	  0.00000E+000
  3.93216E+001	  1.63292E-002	  1.94865E-002	  0.00000E+000	  0.00000E+000
  4.25984E+001	  1.29503E-002	  1.58602E-002	  0.00000E+000	  0.00000E+000
  4.58752E+001	  8.36892E-003	  1.12305E-002	  0.00000E+000	  0.00000E+000
  4.91520E+001	  4.20555E-003	  7.23551E-003	  0.00000E+000	  0.00000E+000
  5.24288E+001	  1.51600E-003	  4.75843E-003	  0.00000E+000	  0.00000E+000
  5.89824E+001	 -2.05836E-003	  1.19302E-003	  0.00000E+000	  0.00000E+000
  6.55360E+001	 -7.13342E-003	 -4.20410E-003	  0.00000E+000	  0.00000E+000
  7.20896E+001	 -7.46600E-003	 -6.16156E-003	  0.00000E+000	  0.00000E+000
  7.86432E+001	 -6.93198E-003	 -6.54881E-003	  0.00000E+000	  0.00000E+000
  8.51968E+001	 -7.95768E-003	 -7.37964E-003	  0.00000E+000	  0.00000E+000
  9.17504E+001	 -8.21532E-003	 -7.61441E-003	  0.00000E+000	  0.00000E+000
  9.83040E+001	 -7.83053E-003	 -7.27664E-003	  0.00000E+000	  0.00000E+000
  1.04858E+002	 -7.69028E-003	 -6.51226E-003	  0.00000E+000	  0.00000E+000
  1.17965E+002	 -5.20765E-003	 -5.39376E-003	  0.00000E+000	  0.00000E+000
  1.31072E+002	  2.07619E-003	  1.79381E-003	  0.00000E+000	  0.00000E+000
  1.44179E+002	  9.15487E-003	  8.73816E-003	  0.00000E+000	  0.00000E+000
  1.57286E+002	  8.04245E-003	  6.84674E-003	  0.00000E+000	  0.00000E+000
  1.70394E+002	  6.97913E-003	  7.28091E-003	  0.00000E+000	  0.00000E+000
  1.83501E+002	  2.75568E-003	  2.27179E-003	  0.00000E+000	  0.00000E+000
  1.96608E+002	 -1.62416E-003	 -1.72964E-003	  0.00000E+000	  0.00000E+000
  2.09715E+002	  1.74705E-003	  1.85546E-003	  0.00000E+000	  0.00000E+000
  2.35930E+002	 -5.50391E-004	  1.46378E-004	  0.00000E+000	  0.00000E+000
  2.62144E+002	 -3.66441E-003	 -3.24240E-003	  0.00000E+000	  0.00000E+000
  2.88358E+002	 -1.07589E-003	 -8.22539E-004	  0.00000E+000	  0.00000E+000
  3.14573E+002	  3.37552E-003	  4.11910E-003	  0.00000E+000	  0.00000E+000
  3.40787E+002	  1.07390E-003	  7.76663E-004	  0.00000E+000	  0.00000E+000
  3.67002E+002	 -5.12861E-003	 -4.01722E-003	  0.00000E+000	  0.00000E+000
  3.93216E+002	 -8.54446E-003	 -6.47516E-003	  0.00000E+000	  0.00000E+000
  4.19430E+002	 -3.64315E-003	 -3.39662E-004	  0.00000E+000	  0.00000E+000
  4.71859E+002	 -1.12155E-003	  5.22180E-004	  0.00000E+000	  0.00000E+000
  5.24288E+002	 -5.73041E-003	 -5.86563E-003	  0.00000E+000	  0.00000E+000
  5.76717E+002	  3.28655E-005	 -9.35105E-004	  0.00000E+000	  0.00000E+000
  6.29146E+002	 -2.11069E-003	 -3.17196E-003	  0.00000E+000	  0.00000E+000
  6.81574E+002	 -6.12668E-003	 -4.73876E-003	  0.00000E+000	  0.00000E+000
  7.34003E+002	 -1.08874E-003	 -8.31994E-004	  0.00000E+000	  0.00000E+000
  7.86432E+002	 -5.23289E-003	 -6.37136E-003	  0.00000E+000	  0.00000E+000
  8.38861E+002	 -5.69235E-003	 -5.99088E-003	  0.00000E+000	  0.00000E+000
  9.43718E+002	 -2.59554E-003	 -3.99604E-003	  0.00000E+000	  0.00000E+000
  1.04858E+003	  2.02268E-003	 -1.38275E-006	  0.00000E+000	  0.00000E+000
  1.15343E+003	  5.62800E-004	 -1.09000E-003	  0.00000E+000	  0.00000E+000
  1.25829E+003	  3.31497E-004	 -4.62090E-004	  0.00000E+000	  0.00000E+000
  1.36315E+003	 -1.76482E-003	 -1.37329E-003	  0.00000E+000	  0.00000E+000
  1.46801E+003	  4.46603E-004	 -6.89432E-005	  0.00000E+000	  0.00000E+000
  1.57286E+003	 -2.26988E-003	 -1.63534E-003	  0.00000E+000	  0.00000E+000
  1.67772E+003	  4.87964E-004	  7.98695E-004	  0.00000E+000	  0.00000E+000
  1.88744E+003	  1.14653E-003	  1.59531E-003	  0.00000E+000	  0.00000E+000
  2.09715E+003	  1.26410E-003	  1.15294E-003	  0.00000E+000	  0.00000E+000
  2.30687E+003	  1.98884E-003	  2.55972E-003	  0.00000E+000	  0.00000E+000
  2.51658E+003	 -1.15815E-004	  3.85339E-004	  0.00000E+000	  0.00000E+000
  2.72630E+003	  6.01058E-004	 -1.05825E-003	  0.00000E+000	  0.00000E+000
  2.93601E+003	 -2.63723E-003	 -2.23926E-003	  0.00000E+000	  0.00000E+000
  3.14573E+003	  1.78838E-003	  2.28156E-003	  0.00000E+000	  0.00000E+000
  3.35544E+003	 -1.62646E-003	 -1.66115E-003	  0.00000E+000	  0.00000E+000
  3.77487E+003	  5.56747E-004	 -3.12396E-004	  0.00000E+000	  0.00000E+000
  4.19430E+003	  6.93057E-004	  6.77728E-004	  0.00000E+000	  0.00000E+000
  4.61373E+003	  1.54630E-003	  9.47601E-004	  0.00000E+000	  0.00000E+000
  5.03317E+003	 -1.31498E-003	 -3.77111E-004	  0.00000E+000	  0.00000E+000
  5.45260E+003	 -1.78464E-003	 -2.55027E-003	  0.00000E+000	  0.00000E+000
  5.87203E+003	 -2.57645E-004	  6.61082E-004	  0.00000E+000	  0.00000E+000

"Count Rate"
       0.12500	     331.91928	     264.30371	       0.00000	       0.00000
       0.25000	     231.28775	     201.95088	       0.00000	       0.00000
       0.37500	     325.95273	     271.98184	       0.00000	       0.00000
       0.50000	     509.70804	     387.46576	       0.00000	       0.00000
       0.62500	     388.65747	     303.95007	       0.00000	       0.00000
       0.75000	     453.23376	     388.60150	       0.00000	       0.00000
       0.87500	     266.06329	     206.26984	       0.00000	       0.00000
       1.00000	     315.25134	     256.89752	       0.00000	       0.00000
       1.12500	     245.31635	     199.28754	       0.00000	       0.00000
       1.25000	     280.73972	     209.30110	       0.00000	       0.00000
       1.37500	     290.32138	     217.33115	       0.00000	       0.00000
       1.50000	     313.39578	     253.53033	       0.00000	       0.00000
       1.62500	     479.73132	     374.77286	       0.00000	       0.00000
       1.75000	     439.04523	     367.86255	       0.00000	       0.00000
       1.87500	     372.08551	     290.02545	       0.00000	       0.00000
       2.00000	     385.69019	     299.99103	       0.00000	       0.00000
       2.12500	     254.09821	     203.59848	       0.00000	       0.00000
       2.25000	     255.64183	     213.01219	       0.00000	       0.00000
       2.37500	     403.05399	     304.98984	       0.00000	       0.00000
       2.50000	     296.16797	     216.25940	       0.00000	       0.00000
       2.62500	     281.72348	     235.46274	       0.00000	       0.00000
       2.75000	     325.84076	     259.07300	       0.00000	       0.00000
       2.87500	     300.46292	     240.00563	       0.00000	       0.00000
       3.00000	     326.32864	     258.29718	       0.00000	       0.00000
       3.12500	     303.99808	     243.94867	       0.00000	       0.00000
       3.25000	     310.22855	     250.21115	       0.00000	       0.00000
       3.37500	     386.63397	     315.73920	       0.00000	       0.00000
       3.50000	     256.96951	     175.61330	       0.00000	       0.00000
       3.62500	     350.40277	     280.17987	       0.00000	       0.00000
       3.75000	     464.86295	     412.13977	       0.00000	       0.00000
       3.87500	     236.34251	     205.63799	       0.00000	       0.00000
       4.00000	     350.71469	     269.55844	       0.00000	       0.00000
       4.12500	     359.48859	     333.07098	       0.00000	       0.00000
       4.25000	     410.68411	     297.87155	       0.00000	       0.00000
       4.37500	     338.59766	     271.99786	       0.00000	       0.00000
       4.50000	     283.93094	     210.79674	       0.00000	       0.00000
       4.62500	     293.80054	     208.77322	       0.00000	       0.00000
       4.75000	     421.68146	     368.07050	       0.00000	       0.00000
       4.87500	     421.08160	     349.33105	       0.00000	       0.00000
       5.00000	     344.98810	     269.15054	       0.00000	       0.00000
       5.12500	     361.64005	     278.99615	       0.00000	       0.00000
       5.25000	     453.65765	     379.57169	       0.00000	       0.00000
       5.37500	     316.31506	     253.77028	       0.00000	       0.00000
       5.50000	     313.77969	     282.86722	       0.00000	       0.00000
       5.62500	     336.43817	     280.29984	       0.00000	       0.00000
       5.75000	     252.68254	     185.17096	       0.00000	       0.00000
       5.87500	     291.96899	     224.63336	       0.00000	       0.00000
       6.00000	     276.06885	     218.09096	       0.00000	       0.00000
       6.12500	     299.39917	     238.67795	       0.00000	       0.00000
       6.25000	     375.04480	     248.58754	       0.00000	       0.00000
       6.37500	     403.66983	     349.00311	       0.00000	       0.00000
       6.50000	     295.52814	     241.02138	       0.00000	       0.00000
       6.62500	     378.44397	     295.30417	       0.00000	       0.00000
       6.75000	     261.13651	     203.83842	       0.00000	       0.00000
       6.87500	     307.48523	     269.32651	       0.00000	       0.00000
       7.00000	     382.24304	     290.38538	       0.00000	       0.00000
       7.12500	     253.96223	     208.37332	       0.00000	       0.00000
       7.25000	     282.94717	     242.32507	       0.00000	       0.00000
       7.37500	     412.62766	     301.54266	       0.00000	       0.00000
       7.50000	     506.43683	     423.32104	       0.00000	       0.00000
       7.62500	     331.63934	     283.60303	       0.00000	       0.00000
       7.75000	     353.04214	     311.70819	       0.00000	       0.00000
       7.87500	     497.34305	     421.36951	       0.00000	       0.00000
       8.00000	     273.91739	     227.41669	       0.00000	       0.00000
       8.12500	     408.60461	     310.35651	       0.00000	       0.00000
       8.25000	     287.69803	     243.88469	       0.00000	       0.00000
       8.37500	     239.76569	     224.82532	       0.00000	       0.00000
       8.50000	     312.17209	     260.76859	       0.00000	       0.00000
       8.62500	     314.12360	     203.27057	       0.00000	       0.00000
       8.75000	     414.18726	     382.81891	       0.00000	       0.00000
       8.87500	     373.14926	     289.80951	       0.00000	       0.00000
       9.00000	     297.38367	     266.22327	       0.00000	       0.00000
       9.12500	     238.60597	     205.97391	       0.00000	       0.00000
       9.25000	     299.78308	     250.29913	       0.00000	       0.00000
       9.37500	     453.16980	     367.33466	       0.00000	       0.00000
       9.50000	     353.77795	     324.20914	       0.00000	       0.00000
       9.62500	     331.74332	     261.16849	       0.00000	       0.00000
       9.75000	     346.37976	     290.08145	       0.00000	       0.00000
       9.87500	     397.12741	     352.81821	       0.00000	       0.00000
      10.00000	     326.46460	     312.38004	       0.00000	       0.00000
      10.12500	     228.39246	     204.76620	       0.00000	       0.00000
      10.25000	     257.99326	     199.96736	       0.00000	       0.00000
      10.37500	     495.27155	     406.10123	       0.00000	       0.00000
      10.50000	     353.30606	     278.01239	       0.00000	       0.00000
      10.62500	     320.39407	     217.05920	       0.00000	       0.00000
      10.75000	     370.74182	     319.48230	       0.00000	       0.00000
      10.87500	     233.79114	     206.58176	       0.00000	       0.00000
      11.00000	     331.31943	     276.86066	       0.00000	       0.00000
      11.12500	     357.51306	     268.51071	       0.00000	       0.00000
      11.25000	     356.18536	     290.37738	       0.00000	       0.00000
      11.37500	     327.01648	     272.95761	       0.00000	       0.00000
      11.50000	     444.64386	     353.32208	       0.00000	       0.00000
      11.62500	     364.57535	     283.58704	       0.00000	       0.00000
      11.75000	     379.67566	     299.13525	       0.00000	       0.00000
      11.87500	     352.61826	     312.02011	       0.00000	       0.00000
      12.00000	     533.48627	     369.08624	       0.00000	       0.00000
      12.12500	     380.89935	     287.26614	       0.00000	       0.00000
      12.25000	     316.79495	     260.68860	       0.00000	       0.00000
      12.37500	     365.99899	     336.98206	       0.00000	       0.00000
      12.50000	     357.60104	     281.97144	       0.00000	       0.00000
      12.62500	     244.57253	     220.31442	       0.00000	       0.00000
      12.75000	     263.60788	     205.36606	       0.00000	       0.00000
      12.87500	     370.53387	     309.96463	       0.00000	       0.00000
      13.00000	     360.80826	     280.51578	       0.00000	       0.00000
      13.12500	     336.09427	     262.61612	       0.00000	       0.00000
      13.25000	     486.21774	     474.30066	       0.00000	       0.00000
      13.37500	     269.54245	     253.30640	       0.00000	       0.00000
      13.50000	     496.67920	     539.22089	       0.00000	       0.00000
      13.62500	     325.78476	     247.80373	       0.00000	       0.00000
      13.75000	     356.25735	     302.76636	       0.00000	       0.00000
      13.87500	     276.54874	     229.45619	       0.00000	       0.00000
      14.00000	     366.46286	     283.93094	       0.00000	       0.00000
      14.12500	     338.33371	     267.51895	       0.00000	       0.00000
      14.25000	     443.99603	     381.49121	       0.00000	       0.00000
      14.37500	     401.76630	     318.88245	       0.00000	       0.00000
      14.50000	     343.22852	     286.91422	       0.00000	       0.00000
      14.62500	     447.26721	     345.42798	       0.00000	       0.00000
      14.75000	     333.18298	     252.52258	       0.00000	       0.00000
      14.87500	     331.39142	     258.25720	       0.00000	       0.00000
      15.00000	     383.28278	     369.07825	       0.00000	       0.00000
      15.12500	     323.38535	     256.20169	       0.00000	       0.00000
      15.25000	     431.48706	     382.05109	       0.00000	       0.00000
      15.37500	     320.04218	     261.89630	       0.00000	       0.00000
      15.50000	     298.07150	     222.20996	       0.00000	       0.00000
      15.62500	     265.55142	     206.18985	       0.00000	       0.00000
      15.75000	     300.82285	     231.03981	       0.00000	       0.00000
      15.87500	     365.58310	     276.18884	       0.00000	       0.00000
      16.00000	     266.45520	     209.78098	       0.00000	       0.00000
      16.12500	     423.14508	     336.95804	       0.00000	       0.00000
      16.25000	     421.38553	     344.83612	       0.00000	       0.00000
      16.37500	     385.61823	     320.74600	       0.00000	       0.00000
      16.50000	     374.22897	     301.21475	       0.00000	       0.00000
      16.62500	     395.87973	     369.91803	       0.00000	       0.00000
      16.75000	     322.43359	     288.94574	       0.00000	       0.00000
      16.87500	     423.60098	     309.07684	       0.00000	       0.00000
      17.00000	     224.88130	     202.01486	       0.00000	       0.00000
      17.12500	     314.27557	     261.52039	       0.00000	       0.00000
      17.25000	     421.54547	     296.85580	       0.00000	       0.00000
      17.37500	     291.32114	     249.77126	       0.00000	       0.00000
      17.50000	     264.84760	     188.31421	       0.00000	       0.00000
      17.62500	     409.24448	     336.35818	       0.00000	       0.00000
      17.75000	     406.94904	     311.22830	       0.00000	       0.00000
      17.87500	     451.39423	     402.20618	       0.00000	       0.00000
      18.00000	     309.20480	     266.92709	       0.00000	       0.00000
      18.12500	     304.58194	     222.36192	       0.00000	       0.00000
      18.25000	     275.56497	     219.15469	       0.00000	       0.00000
      18.37500	     388.48151	     326.64056	       0.00000	       0.00000
      18.50000	     385.37827	     379.52371	       0.00000	       0.00000
      18.62500	     413.86734	     324.80899	       0.00000	       0.00000
      18.75000	     282.78723	     209.02916	       0.00000	       0.00000
      18.87500	     388.50552	     341.28500	       0.00000	       0.00000
      19.00000	     324.35312	     267.67090	       0.00000	       0.00000
      19.12500	     281.96344	     197.39200	       0.00000	       0.00000
      19.25000	     250.60306	     190.63364	       0.00000	       0.00000
      19.37500	     255.68182	     207.90144	       0.00000	       0.00000
      19.50000	     308.18106	     273.26953	       0.00000	       0.00000
      19.62500	     339.65338	     336.21423	       0.00000	       0.00000
      19.75000	     405.89328	     285.01868	       0.00000	       0.00000
      19.87500	     558.76013	     389.11337	       0.00000	       0.00000
      20.00000	     364.76727	     270.99808	       0.00000	       0.00000
      20.12500	     318.01065	     258.45715	       0.00000	       0.00000
      20.25000	     440.22894	     376.35648	       0.00000	       0.00000
      20.37500	     232.10355	     200.97513	       0.00000	       0.00000
      20.50000	     482.44266	     428.07990	       0.00000	       0.00000
      20.62500	     348.39526	     328.68805	       0.00000	       0.00000
      20.75000	     324.51309	     277.38055	       0.00000	       0.00000
      20.87500	     361.99197	     303.64615	       0.00000	       0.00000
      21.00000	     273.32553	     215.57158	       0.00000	       0.00000
      21.12500	     338.31772	     305.18979	       0.00000	       0.00000
      21.25000	     334.53464	     249.05144	       0.00000	       0.00000
      21.37500	     293.03275	     229.58417	       0.00000	       0.00000
      21.50000	     301.41470	     263.04004	       0.00000	       0.00000
      21.62500	     361.12817	     281.42755	       0.00000	       0.00000
      21.75000	     308.22104	     235.18280	       0.00000	       0.00000
      21.87500	     433.03070	     294.18445	       0.00000	       0.00000
      22.00000	     299.35120	     259.97678	       0.00000	       0.00000
      22.12500	     411.17999	     354.00992	       0.00000	       0.00000
      22.25000	     373.16525	     301.92657	       0.00000	       0.00000
      22.37500	     300.18298	     242.73297	       0.00000	       0.00000
      22.50000	     379.27576	     305.59769	       0.00000	       0.00000
      22.62500	     313.01187	     226.21698	       0.00000	       0.00000
      22.75000	     392.62451	     268.95059	       0.00000	       0.00000
      22.87500	     248.23563	     211.88448	       0.00000	       0.00000
      23.00000	     289.04172	     266.08728	       0.00000	       0.00000
      23.12500	     212.65228	     178.26065	       0.00000	       0.00000
      23.25000	     316.53101	     229.60815	       0.00000	       0.00000
      23.37500	     356.07339	     267.79886	       0.00000	       0.00000
      23.50000	     299.55115	     238.08609	       0.00000	       0.00000
      23.62500	     411.51593	     352.65024	       0.00000	       0.00000
      23.75000	     248.13165	     202.67871	       0.00000	       0.00000
      23.87500	     271.68591	     225.16124	       0.00000	       0.00000
      24.00000	     287.15417	     264.93558	       0.00000	       0.00000
      24.12500	     390.84894	     327.75229	       0.00000	       0.00000
      24.25000	     334.53464	     264.57565	       0.00000	       0.00000
      24.37500	     296.63187	     248.83548	       0.00000	       0.00000
      24.50000	     232.45546	     183.25943	       0.00000	       0.00000
      24.62500	     259.24896	     213.70802	       0.00000	       0.00000
      24.75000	     452.69791	     311.77219	       0.00000	       0.00000
      24.87500	     276.55673	     224.16948	       0.00000	       0.00000
      25.00000	     570.18933	     496.05536	       0.00000	       0.00000
      25.12500	     322.44958	     321.92972	       0.00000	       0.00000
      25.25000	     439.86902	     373.44519	       0.00000	       0.00000
      25.37500	     268.57468	     222.43390	       0.00000	       0.00000
      25.50000	     259.07300	     202.80667	       0.00000	       0.00000
      25.62500	     212.26038	     180.45212	       0.00000	       0.00000
      25.75000	     350.70670	     329.55984	       0.00000	       0.00000
      25.87500	     401.59833	     313.54773	       0.00000	       0.00000
      26.00000	     396.71951	     298.15149	       0.00000	       0.00000
      26.12500	     295.37616	     218.69881	       0.00000	       0.00000
      26.25000	     360.42435	     289.00171	       0.00000	       0.00000
      26.37500	     390.02515	     314.49951	       0.00000	       0.00000
      26.50000	     282.64325	     259.51288	       0.00000	       0.00000
      26.62500	     328.46411	     294.28842	       0.00000	       0.00000
      26.75000	     514.00299	     358.81674	       0.00000	       0.00000
      26.87500	     413.00357	     383.57870	       0.00000	       0.00000
      27.00000	     357.64902	     298.54340	       0.00000	       0.00000
      27.12500	     326.14468	     233.33525	       0.00000	       0.00000
      27.25000	     353.92194	     267.44696	       0.00000	       0.00000
      27.37500	     263.15201	     219.97850	       0.00000	       0.00000
      27.50000	     564.05481	     388.24957	       0.00000	       0.00000
      27.62500	     327.13644	     235.10283	       0.00000	       0.00000
      27.75000	     261.79233	     219.53061	       0.00000	       0.00000
      27.87500	     250.57906	     167.73520	       0.00000	       0.00000
      28.00000	     312.48401	     229.66414	       0.00000	       0.00000
      28.12500	     423.13708	     359.03268	       0.00000	       0.00000
      28.25000	     323.36935	     262.09625	       0.00000	       0.00000
      28.37500	     269.73441	     219.55461	       0.00000	       0.00000
      28.50000	     316.08313	     263.65588	       0.00000	       0.00000
      28.62500	     370.93378	     343.47647	       0.00000	       0.00000
      28.75000	     279.79596	     224.48140	       0.00000	       0.00000
      28.87500	     319.77023	     277.39655	       0.00000	       0.00000
      29.00000	     440.13297	     314.88342	       0.00000	       0.00000
      29.12500	     378.38797	     326.08868	       0.00000	       0.00000
      29.25000	     402.65408	     309.71667	       0.00000	       0.00000
      29.37500	     360.44034	     315.60324	       0.00000	       0.00000
      29.50000	     389.78522	     313.77170	       0.00000	       0.00000
      29.62500	     367.61459	     274.79718	       0.00000	       0.00000
      29.75000	     389.65723	     278.86017	       0.00000	       0.00000
      29.87500	     355.44955	     332.35117	       0.00000	       0.00000
      30.00000	     286.86624	     202.26280	       0.00000	       0.00000
      30.12500	     383.91464	     330.60760	       0.00000	       0.00000
      30.25000	     317.29883	     269.39047	       0.00000	       0.00000
      30.37500	     223.29770	     160.63293	       0.00000	       0.00000
      30.50000	     317.40280	     271.83789	       0.00000	       0.00000
      30.62500	     251.88274	     183.69133	       0.00000	       0.00000
      30.75000	     308.14905	     227.66463	       0.00000	       0.00000
      30.87500	     389.48929	     335.39844	       0.00000	       0.00000
      31.00000	     297.34369	     268.92661	       0.00000	       0.00000
      31.12500	     391.26483	     287.60205	       0.00000	       0.00000
      31.25000	     293.16071	     223.19373	       0.00000	       0.00000
      31.37500	     343.70840	     287.52206	       0.00000	       0.00000
      31.50000	     260.45667	     237.69420	       0.00000	       0.00000
      31.62500	     346.95563	     292.44888	       0.00000	       0.00000

Monitor Diode	   3019.68
