ALV-7004 or ALV-7004/FAST
Date :	"13-Nov-18"
Time :	"10:45:35"
Samplename : 	""
SampMemo(0) : 	""
SampMemo(1) : 	""
SampMemo(2) : 	""
SampMemo(3) : 	""
SampMemo(4) : 	""
SampMemo(5) : 	""
SampMemo(6) : 	""
SampMemo(7) : 	""
SampMemo(8) : 	""
SampMemo(9) : 	""
Temperature [K] :	     298.57366
Viscosity [cp]  :	       0.89000
Refractive Index:	       1.33200
Wavelength [nm] :	     632.80000
Angle [°]       :	      55.00000
Duration [s]    :	        30
FloatDur [ms]   :	        30023
Stop TP [ms]   :	   1406495
Runs            :	         1
Mode            :	"C-CH0/1a1/0 "
MeanCR0 [kHz]   :	      39.40492
MeanCR1 [kHz]   :	      34.87377
MeanCR2 [kHz]   :	       0.00000
MeanCR3 [kHz]   :	       0.00000

"Correlation"
  3.12500E-006	 -8.76268E-002	 -9.15092E-002	  0.00000E+000	  0.00000E+000
  6.25000E-006	 -1.77429E-002	  9.48479E-002	  0.00000E+000	  0.00000E+000
  9.37500E-006	 -6.09555E-003	  5.60235E-002	  0.00000E+000	  0.00000E+000
  1.25000E-005	  1.33167E-002	  3.27288E-002	  0.00000E+000	  0.00000E+000
  1.56250E-005	 -5.26848E-002	 -6.09554E-003	  0.00000E+000	  0.00000E+000
  1.87500E-005	 -7.98619E-002	  3.27288E-002	  0.00000E+000	  0.00000E+000
  2.18750E-005	 -1.14804E-001	 -6.04497E-002	  0.00000E+000	  0.00000E+000
  2.50000E-005	  6.37884E-002	  1.33672E-001	  0.00000E+000	  0.00000E+000
  2.81250E-005	 -2.21311E-003	  5.60235E-002	  0.00000E+000	  0.00000E+000
  3.12500E-005	  1.18143E-001	  3.27288E-002	  0.00000E+000	  0.00000E+000
  3.43750E-005	 -6.82146E-002	 -9.92741E-002	  0.00000E+000	  0.00000E+000
  3.75000E-005	  1.06495E-001	  1.41437E-001	  0.00000E+000	  0.00000E+000
  4.06250E-005	 -2.21311E-003	 -6.04497E-002	  0.00000E+000	  0.00000E+000
  4.37500E-005	 -2.55077E-002	  3.27288E-002	  0.00000E+000	  0.00000E+000
  4.68750E-005	  1.14260E-001	  1.72497E-001	  0.00000E+000	  0.00000E+000
  5.00000E-005	  2.10815E-002	  8.32006E-002	  0.00000E+000	  0.00000E+000
  5.62500E-005	  3.27288E-002	  9.09654E-002	  0.00000E+000	  0.00000E+000
  6.25000E-005	  1.71991E-002	 -4.88024E-002	  0.00000E+000	  0.00000E+000
  6.87500E-005	  1.00672E-001	  1.22025E-001	  0.00000E+000	  0.00000E+000
  7.50000E-005	 -3.71551E-002	 -4.10375E-002	  0.00000E+000	  0.00000E+000
  8.12500E-005	  5.55177E-003	  4.43762E-002	  0.00000E+000	  0.00000E+000
  8.75000E-005	 -2.55077E-002	 -3.32726E-002	  0.00000E+000	  0.00000E+000
  9.37500E-005	 -2.16253E-002	 -7.98619E-002	  0.00000E+000	  0.00000E+000
  1.00000E-004	  1.42873E-002	  1.66933E-003	  0.00000E+000	  0.00000E+000
  1.12500E-004	  1.42873E-002	 -4.29787E-002	  0.00000E+000	  0.00000E+000
  1.25000E-004	 -5.85085E-002	 -2.55077E-002	  0.00000E+000	  0.00000E+000
  1.37500E-004	 -5.75379E-002	 -6.82146E-002	  0.00000E+000	  0.00000E+000
  1.50000E-004	 -3.61845E-002	 -2.16253E-002	  0.00000E+000	  0.00000E+000
  1.62500E-004	 -3.61845E-002	 -9.15092E-002	  0.00000E+000	  0.00000E+000
  1.75000E-004	 -2.84196E-002	  1.66933E-003	  0.00000E+000	  0.00000E+000
  1.87500E-004	 -9.00738E-003	  4.82586E-002	  0.00000E+000	  0.00000E+000
  2.00000E-004	 -1.24045E-002	  6.52237E-003	  0.00000E+000	  0.00000E+000
  2.25000E-004	 -3.52139E-002	  7.49298E-003	  0.00000E+000	  0.00000E+000
  2.50000E-004	  2.20521E-002	  8.46359E-003	  0.00000E+000	  0.00000E+000
  2.75000E-004	  5.06646E-003	 -3.03608E-002	  0.00000E+000	  0.00000E+000
  3.00000E-004	 -1.72781E-003	  3.61054E-003	  0.00000E+000	  0.00000E+000
  3.25000E-004	 -1.77429E-002	  1.04048E-002	  0.00000E+000	  0.00000E+000
  3.50000E-004	  5.06851E-002	  7.54357E-002	  0.00000E+000	  0.00000E+000
  3.75000E-004	  1.66932E-003	  6.98712E-004	  0.00000E+000	  0.00000E+000
  4.00000E-004	  1.42666E-003	  2.78758E-002	  0.00000E+000	  0.00000E+000
  4.50000E-004	 -1.96841E-002	 -2.11400E-002	  0.00000E+000	  0.00000E+000
  5.00000E-004	 -3.66904E-003	 -2.01694E-002	  0.00000E+000	  0.00000E+000
  5.50000E-004	 -1.24045E-002	 -2.30812E-002	  0.00000E+000	  0.00000E+000
  6.00000E-004	 -1.67723E-002	 -9.97801E-003	  0.00000E+000	  0.00000E+000
  6.50000E-004	  3.12522E-003	 -9.97801E-003	  0.00000E+000	  0.00000E+000
  7.00000E-004	  9.41352E-004	  6.52236E-003	  0.00000E+000	  0.00000E+000
  7.50000E-004	 -1.07060E-002	 -3.18374E-003	  0.00000E+000	  0.00000E+000
  8.00000E-004	  1.08901E-002	  4.33846E-003	  0.00000E+000	  0.00000E+000
  9.00000E-004	  1.54796E-003	  2.18094E-002	  0.00000E+000	  0.00000E+000
  1.00000E-003	 -2.57714E-003	 -1.41031E-002	  0.00000E+000	  0.00000E+000
  1.10000E-003	 -7.18753E-003	 -1.48520E-003	  0.00000E+000	  0.00000E+000
  1.20000E-003	 -1.16766E-002	 -2.06547E-002	  0.00000E+000	  0.00000E+000
  1.30000E-003	 -1.43458E-002	 -1.16766E-002	  0.00000E+000	  0.00000E+000
  1.40000E-003	 -1.49524E-002	 -9.25008E-003	  0.00000E+000	  0.00000E+000
  1.50000E-003	  1.54796E-003	 -9.99895E-004	  0.00000E+000	  0.00000E+000
  1.60000E-003	 -3.97244E-003	 -2.69852E-003	  0.00000E+000	  0.00000E+000
  1.80000E-003	 -1.47705E-002	 -5.73167E-003	  0.00000E+000	  0.00000E+000
  2.00000E-003	 -4.94305E-003	 -3.54780E-003	  0.00000E+000	  0.00000E+000
  2.20000E-003	  3.36780E-003	 -2.33454E-003	  0.00000E+000	  0.00000E+000
  2.40000E-003	 -1.60658E-003	 -1.89562E-002	  0.00000E+000	  0.00000E+000
  2.60000E-003	  7.67488E-003	 -5.48902E-003	  0.00000E+000	  0.00000E+000
  2.80000E-003	 -6.96633E-004	  7.25023E-003	  0.00000E+000	  0.00000E+000
  3.00000E-003	  2.09387E-003	 -4.15443E-003	  0.00000E+000	  0.00000E+000
  3.20000E-003	  2.36675E-003	  1.06249E-003	  0.00000E+000	  0.00000E+000
  3.60000E-003	  2.15443E-003	 -5.24647E-003	  0.00000E+000	  0.00000E+000
  4.00000E-003	  3.58001E-003	  2.76106E-003	  0.00000E+000	  0.00000E+000
  4.40000E-003	 -6.91471E-003	 -4.39719E-003	  0.00000E+000	  0.00000E+000
  4.80000E-003	  4.06531E-003	  9.25201E-003	  0.00000E+000	  0.00000E+000
  5.20000E-003	  1.24448E-003	  5.24824E-003	  0.00000E+000	  0.00000E+000
  5.60000E-003	 -8.88626E-003	 -5.91377E-003	  0.00000E+000	  0.00000E+000
  6.00000E-003	 -6.42898E-003	 -7.36884E-003	  0.00000E+000	  0.00000E+000
  6.40000E-003	 -3.03206E-003	 -5.76148E-003	  0.00000E+000	  0.00000E+000
  7.20000E-003	  2.29113E-003	  7.55408E-003	  0.00000E+000	  0.00000E+000
  8.00000E-003	  1.45701E-003	 -4.24490E-003	  0.00000E+000	  0.00000E+000
  8.80000E-003	 -3.47716E-004	  2.06407E-003	  0.00000E+000	  0.00000E+000
  9.60000E-003	  2.03331E-003	 -3.12263E-003	  0.00000E+000	  0.00000E+000
  1.04000E-002	  4.23235E-003	  3.18633E-003	  0.00000E+000	  0.00000E+000
  1.12000E-002	  1.07787E-003	  3.09534E-003	  0.00000E+000	  0.00000E+000
  1.20000E-002	  2.30630E-003	  4.33893E-003	  0.00000E+000	  0.00000E+000
  1.28000E-002	 -2.12254E-003	 -1.51549E-003	  0.00000E+000	  0.00000E+000
  1.44000E-002	 -2.64731E-004	  9.71702E-004	  0.00000E+000	  0.00000E+000
  1.60000E-002	 -2.95666E-003	 -3.04723E-003	  0.00000E+000	  0.00000E+000
  1.76000E-002	 -6.05961E-004	  8.50376E-004	  0.00000E+000	  0.00000E+000
  1.92000E-002	 -1.50833E-003	 -3.32021E-003	  0.00000E+000	  0.00000E+000
  2.08000E-002	 -2.64731E-004	  2.44278E-003	  0.00000E+000	  0.00000E+000
  2.24000E-002	 -3.19931E-003	 -3.76002E-003	  0.00000E+000	  0.00000E+000
  2.40000E-002	 -4.22300E-003	 -2.69842E-003	  0.00000E+000	  0.00000E+000
  2.56000E-002	  9.36301E-004	  8.26773E-004	  0.00000E+000	  0.00000E+000
  2.88000E-002	 -4.93070E-004	  1.80496E-003	  0.00000E+000	  0.00000E+000
  3.20000E-002	 -8.15345E-004	 -4.42058E-003	  0.00000E+000	  0.00000E+000
  3.52000E-002	 -1.97340E-004	 -1.59217E-003	  0.00000E+000	  0.00000E+000
  3.84000E-002	 -7.22224E-005	 -1.82724E-003	  0.00000E+000	  0.00000E+000
  4.16000E-002	  1.37232E-003	 -1.17511E-003	  0.00000E+000	  0.00000E+000
  4.48000E-002	 -3.03500E-004	 -1.10686E-003	  0.00000E+000	  0.00000E+000
  4.80000E-002	 -1.93339E-003	  1.34326E-003	  0.00000E+000	  0.00000E+000
  5.12000E-002	  2.72491E-003	  5.12732E-003	  0.00000E+000	  0.00000E+000
  5.76000E-002	 -5.64168E-004	 -6.69559E-005	  0.00000E+000	  0.00000E+000
  6.40000E-002	  1.32587E-003	  3.08374E-003	  0.00000E+000	  0.00000E+000
  7.04000E-002	 -1.35426E-003	 -5.93121E-004	  0.00000E+000	  0.00000E+000
  7.68000E-002	 -3.68488E-004	 -2.93624E-003	  0.00000E+000	  0.00000E+000
  8.32000E-002	 -1.33299E-003	 -1.22545E-003	  0.00000E+000	  0.00000E+000
  8.96000E-002	 -1.70786E-003	 -2.73793E-004	  0.00000E+000	  0.00000E+000
  9.60000E-002	  1.61251E-003	  2.19823E-003	  0.00000E+000	  0.00000E+000
  1.02400E-001	 -8.15701E-004	 -1.03049E-004	  0.00000E+000	  0.00000E+000
  1.15200E-001	 -7.06351E-005	 -4.31857E-004	  0.00000E+000	  0.00000E+000
  1.28000E-001	  7.13673E-004	  4.86526E-004	  0.00000E+000	  0.00000E+000
  1.40800E-001	  4.12732E-004	  6.89370E-004	  0.00000E+000	  0.00000E+000
  1.53600E-001	 -1.91238E-003	 -1.25945E-003	  0.00000E+000	  0.00000E+000
  1.66400E-001	  7.38747E-005	  8.71360E-004	  0.00000E+000	  0.00000E+000
  1.79200E-001	 -1.80769E-003	 -1.29462E-003	  0.00000E+000	  0.00000E+000
  1.92000E-001	  3.74733E-004	  7.36561E-004	  0.00000E+000	  0.00000E+000
  2.04800E-001	 -5.69952E-004	 -3.13329E-004	  0.00000E+000	  0.00000E+000
  2.30400E-001	  2.83035E-004	  2.63727E-004	  0.00000E+000	  0.00000E+000
  2.56000E-001	 -3.13660E-004	  6.27763E-005	  0.00000E+000	  0.00000E+000
  2.81600E-001	 -4.83851E-004	 -1.87566E-004	  0.00000E+000	  0.00000E+000
  3.07200E-001	  5.48858E-004	  1.07027E-003	  0.00000E+000	  0.00000E+000
  3.32800E-001	  4.27155E-004	  5.91795E-004	  0.00000E+000	  0.00000E+000
  3.58400E-001	  2.75446E-004	  9.02599E-004	  0.00000E+000	  0.00000E+000
  3.84000E-001	 -1.88278E-004	 -2.05236E-003	  0.00000E+000	  0.00000E+000
  4.09600E-001	 -3.95172E-004	 -8.66625E-005	  0.00000E+000	  0.00000E+000
  4.60800E-001	 -6.92634E-004	  1.30304E-004	  0.00000E+000	  0.00000E+000
  5.12000E-001	  3.09741E-004	 -9.05558E-005	  0.00000E+000	  0.00000E+000
  5.63200E-001	  3.38464E-004	  7.30896E-004	  0.00000E+000	  0.00000E+000
  6.14400E-001	  1.00063E-003	  7.86045E-004	  0.00000E+000	  0.00000E+000
  6.65600E-001	 -4.07089E-004	 -2.27460E-004	  0.00000E+000	  0.00000E+000
  7.16800E-001	 -2.39297E-004	 -2.49195E-004	  0.00000E+000	  0.00000E+000
  7.68000E-001	  3.64859E-005	 -4.76794E-004	  0.00000E+000	  0.00000E+000
  8.19200E-001	  3.20850E-004	  4.97352E-004	  0.00000E+000	  0.00000E+000
  9.21600E-001	  5.75378E-004	  8.99416E-004	  0.00000E+000	  0.00000E+000
  1.02400E+000	 -3.81197E-004	  2.86041E-004	  0.00000E+000	  0.00000E+000
  1.12640E+000	  3.49822E-004	  7.90128E-004	  0.00000E+000	  0.00000E+000
  1.22880E+000	 -1.10964E-004	  3.25954E-005	  0.00000E+000	  0.00000E+000
  1.33120E+000	 -4.73249E-004	 -1.01695E-006	  0.00000E+000	  0.00000E+000
  1.43360E+000	  5.65940E-004	  1.75477E-005	  0.00000E+000	  0.00000E+000
  1.53600E+000	 -3.79595E-005	 -1.82629E-005	  0.00000E+000	  0.00000E+000
  1.63840E+000	 -1.83632E-004	 -6.09224E-004	  0.00000E+000	  0.00000E+000
  1.84320E+000	 -2.70313E-004	 -3.97070E-004	  0.00000E+000	  0.00000E+000
  2.04800E+000	  1.06073E-004	  3.79492E-004	  0.00000E+000	  0.00000E+000
  2.25280E+000	 -1.59412E-005	 -3.64135E-004	  0.00000E+000	  0.00000E+000
  2.45760E+000	  2.14487E-004	  2.83468E-006	  0.00000E+000	  0.00000E+000
  2.66240E+000	  2.21804E-004	  5.70356E-004	  0.00000E+000	  0.00000E+000
  2.86720E+000	  1.39961E-004	 -3.18450E-005	  0.00000E+000	  0.00000E+000
  3.07200E+000	 -1.24121E-004	  1.80646E-004	  0.00000E+000	  0.00000E+000
  3.27680E+000	  5.68539E-005	  2.30517E-004	  0.00000E+000	  0.00000E+000
  3.68640E+000	  1.18207E-004	 -7.87829E-005	  0.00000E+000	  0.00000E+000
  4.09600E+000	 -8.21737E-005	  1.47155E-004	  0.00000E+000	  0.00000E+000
  4.50560E+000	  3.05593E-004	  3.57392E-004	  0.00000E+000	  0.00000E+000
  4.91520E+000	 -1.02702E-004	 -2.99702E-005	  0.00000E+000	  0.00000E+000
  5.32480E+000	  1.90963E-004	  1.67018E-004	  0.00000E+000	  0.00000E+000
  5.73440E+000	  2.95977E-004	  1.35014E-004	  0.00000E+000	  0.00000E+000
  6.14400E+000	 -3.84214E-005	 -2.60095E-004	  0.00000E+000	  0.00000E+000
  6.55360E+000	  2.06062E-005	 -9.90782E-005	  0.00000E+000	  0.00000E+000
  7.37280E+000	  7.96288E-005	  2.91223E-005	  0.00000E+000	  0.00000E+000
  8.19200E+000	  1.63010E-004	  2.27442E-004	  0.00000E+000	  0.00000E+000
  9.01120E+000	 -1.05857E-004	 -3.34959E-005	  0.00000E+000	  0.00000E+000
  9.83040E+000	  7.32386E-005	  6.74264E-005	  0.00000E+000	  0.00000E+000
  1.06496E+001	 -1.29920E-006	  6.04432E-005	  0.00000E+000	  0.00000E+000
  1.14688E+001	  1.89442E-004	 -3.86829E-005	  0.00000E+000	  0.00000E+000
  1.22880E+001	  1.03859E-004	 -9.70263E-005	  0.00000E+000	  0.00000E+000
  1.31072E+001	  1.12427E-004	  6.75524E-005	  0.00000E+000	  0.00000E+000
  1.47456E+001	  8.47675E-005	 -7.58682E-005	  0.00000E+000	  0.00000E+000
  1.63840E+001	 -1.79793E-004	 -2.25541E-004	  0.00000E+000	  0.00000E+000
  1.80224E+001	 -5.76476E-005	 -1.95598E-004	  0.00000E+000	  0.00000E+000
  1.96608E+001	 -1.29873E-004	 -2.54141E-004	  0.00000E+000	  0.00000E+000
  2.12992E+001	  5.46601E-005	 -7.81541E-005	  0.00000E+000	  0.00000E+000
  2.29376E+001	  1.58041E-004	  2.50470E-004	  0.00000E+000	  0.00000E+000
  2.45760E+001	  1.08761E-004	  1.02072E-004	  0.00000E+000	  0.00000E+000
  2.62144E+001	  9.51059E-005	  1.39480E-004	  0.00000E+000	  0.00000E+000
  2.94912E+001	  1.03256E-005	  4.17629E-005	  0.00000E+000	  0.00000E+000
  3.27680E+001	 -1.41037E-004	 -1.26646E-004	  0.00000E+000	  0.00000E+000
  3.60448E+001	  3.06125E-005	  1.07656E-004	  0.00000E+000	  0.00000E+000
  3.93216E+001	 -1.73420E-005	 -7.04245E-005	  0.00000E+000	  0.00000E+000
  4.25984E+001	 -1.12870E-004	 -6.26244E-005	  0.00000E+000	  0.00000E+000
  4.58752E+001	  7.03156E-005	  6.03934E-006	  0.00000E+000	  0.00000E+000
  4.91520E+001	  2.64941E-006	  1.51871E-005	  0.00000E+000	  0.00000E+000
  5.24288E+001	 -8.09476E-005	 -4.61016E-005	  0.00000E+000	  0.00000E+000
  5.89824E+001	  5.27475E-005	  7.44825E-005	  0.00000E+000	  0.00000E+000
  6.55360E+001	  2.70341E-005	  7.30082E-005	  0.00000E+000	  0.00000E+000
  7.20896E+001	  1.48739E-005	 -2.98823E-005	  0.00000E+000	  0.00000E+000
  7.86432E+001	  3.16444E-005	 -4.22303E-005	  0.00000E+000	  0.00000E+000
  8.51968E+001	  3.64884E-005	  5.90121E-006	  0.00000E+000	  0.00000E+000
  9.17504E+001	  5.56684E-006	  6.12337E-005	  0.00000E+000	  0.00000E+000
  9.83040E+001	  1.39923E-005	  4.02513E-006	  0.00000E+000	  0.00000E+000
  1.04858E+002	  1.60528E-005	 -1.50745E-007	  0.00000E+000	  0.00000E+000
  1.17965E+002	  4.87354E-005	  8.72527E-007	  0.00000E+000	  0.00000E+000
  1.31072E+002	  2.39772E-005	  6.57753E-005	  0.00000E+000	  0.00000E+000
  1.44179E+002	 -4.70965E-006	 -3.54110E-005	  0.00000E+000	  0.00000E+000
  1.57286E+002	  1.45472E-005	 -5.50338E-005	  0.00000E+000	  0.00000E+000
  1.70394E+002	 -1.58263E-005	  7.05895E-005	  0.00000E+000	  0.00000E+000
  1.83501E+002	  1.98079E-005	 -2.63911E-005	  0.00000E+000	  0.00000E+000
  1.96608E+002	 -2.28761E-005	 -2.17907E-005	  0.00000E+000	  0.00000E+000
  2.09715E+002	 -1.26825E-005	  1.39242E-005	  0.00000E+000	  0.00000E+000
  2.35930E+002	 -2.19493E-005	 -2.39162E-005	  0.00000E+000	  0.00000E+000
  2.62144E+002	 -2.35463E-005	 -2.64954E-005	  0.00000E+000	  0.00000E+000
  2.88358E+002	  1.04679E-005	  1.99293E-005	  0.00000E+000	  0.00000E+000
  3.14573E+002	  1.67136E-005	  3.98059E-005	  0.00000E+000	  0.00000E+000
  3.40787E+002	 -6.07227E-006	  3.18543E-005	  0.00000E+000	  0.00000E+000
  3.67002E+002	 -2.87014E-005	 -2.95076E-006	  0.00000E+000	  0.00000E+000
  3.93216E+002	 -1.75637E-005	 -2.72613E-005	  0.00000E+000	  0.00000E+000
  4.19430E+002	  1.15651E-005	  1.08413E-005	  0.00000E+000	  0.00000E+000
  4.71859E+002	  4.51218E-005	  5.11074E-005	  0.00000E+000	  0.00000E+000
  5.24288E+002	  2.02359E-005	  4.94239E-005	  0.00000E+000	  0.00000E+000
  5.76717E+002	  7.45055E-006	 -1.31376E-005	  0.00000E+000	  0.00000E+000
  6.29146E+002	 -2.21429E-005	 -4.64970E-006	  0.00000E+000	  0.00000E+000
  6.81574E+002	 -1.29864E-005	  4.55461E-006	  0.00000E+000	  0.00000E+000
  7.34003E+002	 -1.45332E-005	  1.97550E-005	  0.00000E+000	  0.00000E+000
  7.86432E+002	  1.31095E-005	  4.01369E-005	  0.00000E+000	  0.00000E+000
  8.38861E+002	  1.27445E-005	  3.65984E-005	  0.00000E+000	  0.00000E+000
  9.43718E+002	 -2.59553E-005	 -9.39066E-006	  0.00000E+000	  0.00000E+000
  1.04858E+003	  9.87401E-006	  9.90959E-006	  0.00000E+000	  0.00000E+000
  1.15343E+003	  1.02604E-005	  5.85941E-006	  0.00000E+000	  0.00000E+000
  1.25829E+003	 -1.25368E-005	 -6.31245E-006	  0.00000E+000	  0.00000E+000
  1.36315E+003	  2.29282E-005	  2.42218E-005	  0.00000E+000	  0.00000E+000
  1.46801E+003	 -9.78417E-006	 -7.85335E-006	  0.00000E+000	  0.00000E+000
  1.57286E+003	 -1.01396E-005	 -1.58645E-005	  0.00000E+000	  0.00000E+000
  1.67772E+003	 -8.82540E-006	 -1.65245E-005	  0.00000E+000	  0.00000E+000
  1.88744E+003	  8.10362E-006	  7.84023E-006	  0.00000E+000	  0.00000E+000
  2.09715E+003	  4.50314E-008	  3.37925E-006	  0.00000E+000	  0.00000E+000
  2.30687E+003	  4.70793E-006	 -1.07520E-005	  0.00000E+000	  0.00000E+000
  2.51658E+003	  8.24744E-007	  7.26056E-006	  0.00000E+000	  0.00000E+000
  2.72630E+003	  1.08230E-006	  1.11214E-005	  0.00000E+000	  0.00000E+000
  2.93601E+003	 -1.11667E-005	 -6.32730E-006	  0.00000E+000	  0.00000E+000
  3.14573E+003	 -5.85468E-006	 -4.04840E-006	  0.00000E+000	  0.00000E+000
  3.35544E+003	  2.65921E-006	  1.91760E-005	  0.00000E+000	  0.00000E+000
  3.77487E+003	  2.21532E-006	  1.64838E-007	  0.00000E+000	  0.00000E+000
  4.19430E+003	  5.88307E-006	  8.58333E-006	  0.00000E+000	  0.00000E+000
  4.61373E+003	  6.87503E-008	 -2.76582E-006	  0.00000E+000	  0.00000E+000
  5.03317E+003	  1.49707E-006	  1.31838E-005	  0.00000E+000	  0.00000E+000
  5.45260E+003	 -1.77815E-006	 -2.32863E-006	  0.00000E+000	  0.00000E+000
  5.87203E+003	  6.49918E-006	  6.52696E-006	  0.00000E+000	  0.00000E+000
  6.29146E+003	 -1.28658E-005	 -3.04348E-006	  0.00000E+000	  0.00000E+000
  6.71089E+003	 -9.40150E-006	 -2.11368E-005	  0.00000E+000	  0.00000E+000
  7.54975E+003	 -6.95540E-007	 -8.31764E-006	  0.00000E+000	  0.00000E+000
  8.38861E+003	  8.87673E-006	  1.90737E-005	  0.00000E+000	  0.00000E+000
  9.22747E+003	  3.20280E-007	 -8.60861E-007	  0.00000E+000	  0.00000E+000
  1.00663E+004	 -6.79702E-006	 -4.49792E-006	  0.00000E+000	  0.00000E+000
  1.09052E+004	  2.52880E-007	 -2.45261E-006	  0.00000E+000	  0.00000E+000
  1.17441E+004	 -2.86010E-006	  7.92681E-006	  0.00000E+000	  0.00000E+000
  1.25829E+004	  4.62314E-006	 -2.54899E-008	  0.00000E+000	  0.00000E+000

"Count Rate"
       0.11719	      38.71281	      35.54858	       0.00000	       0.00000
       0.23438	      39.69364	      35.18184	       0.00000	       0.00000
       0.35156	      39.88980	      34.69569	       0.00000	       0.00000
       0.46875	      39.88980	      35.38653	       0.00000	       0.00000
       0.58594	      39.05397	      34.30336	       0.00000	       0.00000
       0.70313	      39.45483	      34.59334	       0.00000	       0.00000
       0.82031	      40.29919	      35.75328	       0.00000	       0.00000
       0.93750	      39.95804	      35.74475	       0.00000	       0.00000
       1.05469	      39.42072	      33.19460	       0.00000	       0.00000
       1.17188	      39.25867	      35.07096	       0.00000	       0.00000
       1.28906	      39.87275	      34.79803	       0.00000	       0.00000
       1.40625	      40.05186	      35.30124	       0.00000	       0.00000
       1.52344	      39.79599	      35.92385	       0.00000	       0.00000
       1.64063	      40.07744	      33.93661	       0.00000	       0.00000
       1.75781	      39.01133	      35.25860	       0.00000	       0.00000
       1.87500	      39.39513	      35.13919	       0.00000	       0.00000
       1.99219	      39.98362	      35.17331	       0.00000	       0.00000
       2.10938	      38.96868	      35.31830	       0.00000	       0.00000
       2.22656	      38.91751	      34.56775	       0.00000	       0.00000
       2.34375	      38.84928	      35.40359	       0.00000	       0.00000
       2.46094	      39.04544	      35.32683	       0.00000	       0.00000
       2.57813	      39.58276	      35.18184	       0.00000	       0.00000
       2.69531	      38.87486	      35.51447	       0.00000	       0.00000
       2.81250	      39.75334	      35.26713	       0.00000	       0.00000
       2.92969	      39.88128	      35.13919	       0.00000	       0.00000
       3.04688	      38.64458	      34.79803	       0.00000	       0.00000
       3.16406	      39.04544	      33.73192	       0.00000	       0.00000
       3.28125	      39.44630	      33.90250	       0.00000	       0.00000
       3.39844	      39.45483	      35.01979	       0.00000	       0.00000
       3.51563	      39.47189	      34.49952	       0.00000	       0.00000
       3.63281	      38.78957	      35.04538	       0.00000	       0.00000
       3.75000	      38.94310	      35.91533	       0.00000	       0.00000
       3.86719	      39.50600	      35.08802	       0.00000	       0.00000
       3.98438	      39.42072	      34.10719	       0.00000	       0.00000
       4.10156	      39.20749	      34.72980	       0.00000	       0.00000
       4.21875	      39.77040	      35.12214	       0.00000	       0.00000
       4.33594	      39.48895	      35.46329	       0.00000	       0.00000
       4.45313	      39.16485	      34.78098	       0.00000	       0.00000
       4.57031	      38.17549	      34.49099	       0.00000	       0.00000
       4.68750	      39.30131	      35.01126	       0.00000	       0.00000
       4.80469	      40.64035	      34.68716	       0.00000	       0.00000
       4.92188	      38.39724	      34.57628	       0.00000	       0.00000
       5.03906	      38.94310	      34.91744	       0.00000	       0.00000
       5.15625	      39.41219	      35.59122	       0.00000	       0.00000
       5.27344	      39.35248	      36.05179	       0.00000	       0.00000
       5.39063	      39.19896	      35.83004	       0.00000	       0.00000
       5.50781	      39.44630	      34.95156	       0.00000	       0.00000
       5.62500	      39.40366	      34.51658	       0.00000	       0.00000
       5.74219	      38.55077	      33.81721	       0.00000	       0.00000
       5.85938	      39.46336	      34.38012	       0.00000	       0.00000
       5.97656	      39.35248	      35.46329	       0.00000	       0.00000
       6.09375	      39.30984	      35.29271	       0.00000	       0.00000
       6.21094	      39.03691	      34.74686	       0.00000	       0.00000
       6.32813	      39.64247	      34.14131	       0.00000	       0.00000
       6.44531	      39.54865	      34.77245	       0.00000	       0.00000
       6.56250	      40.14568	      34.17542	       0.00000	       0.00000
       6.67969	      39.10514	      34.61893	       0.00000	       0.00000
       6.79688	      39.07103	      34.19248	       0.00000	       0.00000
       6.91406	      39.18190	      35.02832	       0.00000	       0.00000
       7.03125	      39.35248	      34.34600	       0.00000	       0.00000
       7.14844	      40.10303	      34.22660	       0.00000	       0.00000
       7.26563	      38.74693	      35.42065	       0.00000	       0.00000
       7.38281	      38.61900	      35.15625	       0.00000	       0.00000
       7.50000	      39.30984	      35.01979	       0.00000	       0.00000
       7.61719	      39.65100	      35.02832	       0.00000	       0.00000
       7.73438	      39.88980	      34.03043	       0.00000	       0.00000
       7.85156	      39.48042	      34.49952	       0.00000	       0.00000
       7.96875	      39.25867	      35.56564	       0.00000	       0.00000
       8.08594	      38.37166	      34.84068	       0.00000	       0.00000
       8.20313	      38.75546	      34.39717	       0.00000	       0.00000
       8.32031	      39.16485	      35.58270	       0.00000	       0.00000
       8.43750	      39.69364	      34.81509	       0.00000	       0.00000
       8.55469	      39.09661	      34.96861	       0.00000	       0.00000
       8.67188	      39.74482	      34.40570	       0.00000	       0.00000
       8.78906	      38.75546	      33.99632	       0.00000	       0.00000
       8.90625	      38.34607	      34.89185	       0.00000	       0.00000
       9.02344	      39.00280	      34.21807	       0.00000	       0.00000
       9.14063	      39.99215	      35.24154	       0.00000	       0.00000
       9.25781	      39.76187	      34.74686	       0.00000	       0.00000
       9.37500	      39.57423	      34.50805	       0.00000	       0.00000
       9.49219	      38.66164	      33.64663	       0.00000	       0.00000
       9.60938	      40.26508	      34.57628	       0.00000	       0.00000
       9.72656	      40.00068	      34.89185	       0.00000	       0.00000
       9.84375	      39.10514	      34.55070	       0.00000	       0.00000
       9.96094	      39.88128	      35.13066	       0.00000	       0.00000
      10.07813	      39.69364	      35.44623	       0.00000	       0.00000
      10.19531	      39.30984	      35.15625	       0.00000	       0.00000
      10.31250	      38.92604	      35.09655	       0.00000	       0.00000
      10.42969	      39.71070	      35.59975	       0.00000	       0.00000
      10.54688	      39.22455	      35.30977	       0.00000	       0.00000
      10.66406	      39.42924	      35.96650	       0.00000	       0.00000
      10.78125	      39.41219	      34.67010	       0.00000	       0.00000
      10.89844	      39.40366	      35.25860	       0.00000	       0.00000
      11.01563	      39.09661	      35.09655	       0.00000	       0.00000
      11.13281	      39.48895	      35.19889	       0.00000	       0.00000
      11.25000	      38.66164	      34.51658	       0.00000	       0.00000
      11.36719	      39.58276	      34.91744	       0.00000	       0.00000
      11.48438	      37.68934	      34.79803	       0.00000	       0.00000
      11.60156	      38.74693	      34.53364	       0.00000	       0.00000
      11.71875	      39.67658	      34.01337	       0.00000	       0.00000
      11.83594	      40.54654	      35.71063	       0.00000	       0.00000
      11.95313	      39.94098	      34.61893	       0.00000	       0.00000
      12.07031	      38.10726	      34.12425	       0.00000	       0.00000
      12.18750	      39.65100	      34.64452	       0.00000	       0.00000
      12.30469	      38.90898	      34.43982	       0.00000	       0.00000
      12.42188	      38.74693	      34.42276	       0.00000	       0.00000
      12.53906	      39.01133	      34.40570	       0.00000	       0.00000
      12.65625	      39.17338	      34.58481	       0.00000	       0.00000
      12.77344	      39.89833	      35.04538	       0.00000	       0.00000
      12.89063	      39.83010	      35.01126	       0.00000	       0.00000
      13.00781	      40.11156	      35.29271	       0.00000	       0.00000
      13.12500	      38.43989	      34.57628	       0.00000	       0.00000
      13.24219	      40.38448	      33.80868	       0.00000	       0.00000
      13.35938	      38.90898	      34.43982	       0.00000	       0.00000
      13.47656	      39.71070	      35.42065	       0.00000	       0.00000
      13.59375	      39.04544	      35.77033	       0.00000	       0.00000
      13.71094	      39.38660	      34.23513	       0.00000	       0.00000
      13.82813	      38.62753	      34.76392	       0.00000	       0.00000
      13.94531	      39.18190	      35.27565	       0.00000	       0.00000
      14.06250	      39.33543	      34.85774	       0.00000	       0.00000
      14.17969	      38.27784	      33.55281	       0.00000	       0.00000
      14.29688	      40.28214	      34.51658	       0.00000	       0.00000
      14.41406	      40.27361	      34.60187	       0.00000	       0.00000
      14.53125	      39.88980	      34.97714	       0.00000	       0.00000
      14.64844	      39.14779	      35.44623	       0.00000	       0.00000
      14.76563	      38.88339	      35.19889	       0.00000	       0.00000
      14.88281	      39.49747	      34.72128	       0.00000	       0.00000
      15.00000	      40.41007	      34.99420	       0.00000	       0.00000
      15.11719	      39.68511	      34.72128	       0.00000	       0.00000
      15.23438	      39.42072	      34.32042	       0.00000	       0.00000
      15.35156	      39.13073	      34.43982	       0.00000	       0.00000
      15.46875	      38.57635	      35.70210	       0.00000	       0.00000
      15.58594	      38.90898	      34.45688	       0.00000	       0.00000
      15.70313	      39.13926	      34.28630	       0.00000	       0.00000
      15.82031	      38.79810	      35.00273	       0.00000	       0.00000
      15.93750	      40.24802	      35.30124	       0.00000	       0.00000
      16.05469	      39.33543	      33.91956	       0.00000	       0.00000
      16.17188	      39.04544	      33.88544	       0.00000	       0.00000
      16.28906	      40.01774	      35.13066	       0.00000	       0.00000
      16.40625	      39.29278	      35.17331	       0.00000	       0.00000
      16.52344	      39.01986	      34.07307	       0.00000	       0.00000
      16.64063	      39.09661	      33.93661	       0.00000	       0.00000
      16.75781	      40.19685	      35.51447	       0.00000	       0.00000
      16.87500	      40.18832	      34.40570	       0.00000	       0.00000
      16.99219	      39.48895	      34.76392	       0.00000	       0.00000
      17.10938	      39.16485	      33.40782	       0.00000	       0.00000
      17.22656	      38.85781	      34.83215	       0.00000	       0.00000
      17.34375	      39.34396	      34.56775	       0.00000	       0.00000
      17.46094	      39.93245	      34.37159	       0.00000	       0.00000
      17.57813	      39.33543	      35.13066	       0.00000	       0.00000
      17.69531	      39.91539	      34.27777	       0.00000	       0.00000
      17.81250	      38.79810	      35.38653	       0.00000	       0.00000
      17.92969	      39.98362	      35.20742	       0.00000	       0.00000
      18.04688	      39.77040	      35.14772	       0.00000	       0.00000
      18.16406	      39.48042	      35.07096	       0.00000	       0.00000
      18.28125	      39.94098	      35.32683	       0.00000	       0.00000
      18.39844	      39.50600	      36.04326	       0.00000	       0.00000
      18.51563	      40.08597	      34.09866	       0.00000	       0.00000
      18.63281	      39.62541	      34.50805	       0.00000	       0.00000
      18.75000	      39.17338	      35.16478	       0.00000	       0.00000
      18.86719	      39.72776	      34.66157	       0.00000	       0.00000
      18.98438	      39.98362	      35.60828	       0.00000	       0.00000
      19.10156	      39.42072	      35.79592	       0.00000	       0.00000
      19.21875	      39.45483	      34.27777	       0.00000	       0.00000
      19.33594	      39.05397	      34.64452	       0.00000	       0.00000
      19.45313	      39.09661	      34.68716	       0.00000	       0.00000
      19.57031	      39.43777	      34.87479	       0.00000	       0.00000
      19.68750	      39.13926	      34.58481	       0.00000	       0.00000
      19.80469	      39.68511	      33.68927	       0.00000	       0.00000
      19.92188	      39.56571	      34.95156	       0.00000	       0.00000
      20.03906	      39.25867	      35.77033	       0.00000	       0.00000
      20.15625	      40.52095	      34.88332	       0.00000	       0.00000
      20.27344	      40.22243	      34.72128	       0.00000	       0.00000
      20.39063	      38.60194	      35.27565	       0.00000	       0.00000
      20.50781	      39.40366	      35.60828	       0.00000	       0.00000
      20.62500	      39.32690	      33.79162	       0.00000	       0.00000
      20.74219	      39.31837	      34.94303	       0.00000	       0.00000
      20.85938	      38.67870	      35.25860	       0.00000	       0.00000
      20.97656	      39.77040	      34.96008	       0.00000	       0.00000
      21.09375	      39.81305	      34.87479	       0.00000	       0.00000
      21.21094	      39.58276	      35.17331	       0.00000	       0.00000
      21.32813	      40.14568	      35.01979	       0.00000	       0.00000
      21.44531	      40.23949	      35.45476	       0.00000	       0.00000
      21.56250	      39.18190	      35.01126	       0.00000	       0.00000
      21.67969	      39.28425	      35.44623	       0.00000	       0.00000
      21.79688	      38.34607	      35.01979	       0.00000	       0.00000
      21.91406	      39.69364	      35.19889	       0.00000	       0.00000
      22.03125	      39.96657	      35.51447	       0.00000	       0.00000
      22.14844	      39.86422	      35.66798	       0.00000	       0.00000
      22.26563	      39.16485	      34.87479	       0.00000	       0.00000
      22.38281	      39.42072	      34.44835	       0.00000	       0.00000
      22.50000	      39.03691	      34.87479	       0.00000	       0.00000
      22.61719	      38.45695	      34.58481	       0.00000	       0.00000
      22.73438	      39.18190	      34.13278	       0.00000	       0.00000
      22.85156	      39.03691	      34.27777	       0.00000	       0.00000
      22.96875	      39.48042	      35.04538	       0.00000	       0.00000
      23.08594	      39.45483	      34.46541	       0.00000	       0.00000
      23.20313	      38.02197	      35.58270	       0.00000	       0.00000
      23.32031	      40.98151	      34.59334	       0.00000	       0.00000
      23.43750	      40.59771	      34.25218	       0.00000	       0.00000
      23.55469	      39.27572	      35.38653	       0.00000	       0.00000
      23.67188	      40.09450	      34.94303	       0.00000	       0.00000
      23.78906	      39.42072	      36.06032	       0.00000	       0.00000
      23.90625	      39.29278	      34.61893	       0.00000	       0.00000
      24.02344	      39.55718	      35.65946	       0.00000	       0.00000
      24.14063	      39.70217	      34.91744	       0.00000	       0.00000
      24.25781	      38.78104	      34.18395	       0.00000	       0.00000
      24.37500	      38.84928	      34.85774	       0.00000	       0.00000
      24.49219	      38.98574	      35.41212	       0.00000	       0.00000
      24.60938	      39.58276	      34.72128	       0.00000	       0.00000
      24.72656	      38.84075	      34.83215	       0.00000	       0.00000
      24.84375	      39.04544	      34.32895	       0.00000	       0.00000
      24.96094	      39.64247	      34.56775	       0.00000	       0.00000
      25.07813	      39.78746	      34.68716	       0.00000	       0.00000
      25.19531	      39.27572	      33.85985	       0.00000	       0.00000
      25.31250	      38.64458	      34.47393	       0.00000	       0.00000
      25.42969	      39.12220	      35.69357	       0.00000	       0.00000
      25.54688	      39.50600	      34.82362	       0.00000	       0.00000
      25.66406	      39.50600	      34.33747	       0.00000	       0.00000
      25.78125	      40.04333	      35.14772	       0.00000	       0.00000
      25.89844	      40.50389	      34.78098	       0.00000	       0.00000
      26.01563	      39.78746	      34.84068	       0.00000	       0.00000
      26.13281	      39.45483	      35.25007	       0.00000	       0.00000
      26.25000	      38.77252	      34.14984	       0.00000	       0.00000
      26.36719	      39.61688	      35.79592	       0.00000	       0.00000
      26.48438	      39.07956	      35.08802	       0.00000	       0.00000
      26.60156	      38.98574	      34.34600	       0.00000	       0.00000
      26.71875	      39.43777	      34.27777	       0.00000	       0.00000
      26.83594	      39.12220	      35.09655	       0.00000	       0.00000
      26.95313	      39.82158	      35.03685	       0.00000	       0.00000
      27.07031	      38.67870	      34.60187	       0.00000	       0.00000
      27.18750	      38.46547	      34.38865	       0.00000	       0.00000
      27.30469	      38.89192	      34.49952	       0.00000	       0.00000
      27.42188	      38.72987	      34.60187	       0.00000	       0.00000
      27.53906	      39.54865	      35.11361	       0.00000	       0.00000
      27.65625	      39.80452	      34.65304	       0.00000	       0.00000
      27.77344	      38.63605	      34.85774	       0.00000	       0.00000
      27.89063	      39.30984	      34.42276	       0.00000	       0.00000
      28.00781	      40.40154	      35.14772	       0.00000	       0.00000
      28.12500	      39.90686	      35.01979	       0.00000	       0.00000
      28.24219	      37.70640	      34.86627	       0.00000	       0.00000
      28.35938	      39.30131	      35.38653	       0.00000	       0.00000
      28.47656	      39.30984	      34.99420	       0.00000	       0.00000
      28.59375	      39.14779	      35.19036	       0.00000	       0.00000
      28.71094	      39.63394	      34.99420	       0.00000	       0.00000
      28.82813	      38.65311	      34.83215	       0.00000	       0.00000
      28.94531	      39.41219	      34.03043	       0.00000	       0.00000
      29.06250	      39.41219	      34.37159	       0.00000	       0.00000
      29.17969	      39.09661	      35.27565	       0.00000	       0.00000
      29.29688	      39.22455	      33.73192	       0.00000	       0.00000
      29.41406	      38.22667	      34.49099	       0.00000	       0.00000
      29.53125	      39.61688	      35.15625	       0.00000	       0.00000
      29.64844	      40.29919	      33.78309	       0.00000	       0.00000
      29.76563	      39.45483	      34.67010	       0.00000	       0.00000
      29.88281	      39.42072	      35.67651	       0.00000	       0.00000

Monitor Diode	1756807.39

"Cumulant 1.Order"
FluctuationFreq. [1/ms]	 0.0000E+000
DiffCoefficient [µm²/s]	 0.0000E+000
Hydrodyn. Radius [nm]	 0.0000E+000

"Cumulant 2.Order"
FluctuationFreq. [1/ms]	 0.0000E+000
DiffCoefficient [µm²/s]	 0.0000E+000
Hydrodyn. Radius [nm]	 0.0000E+000
Expansion Parameter µ2	-3.3324E+009

"Cumulant 3.Order"
FluctuationFreq. [1/ms]	 0.0000E+000
DiffCoefficient [µm²/s]	 0.0000E+000
Hydrodyn. Radius [nm]	 0.0000E+000
Expansion Parameter µ2	-1.1974E+011
Expansion Parameter µ3	-4.9127E+015

