ALV-7004 or ALV-7004/FAST
Date :	"13-Nov-18"
Time :	"10:44:50"
Samplename : 	""
SampMemo(0) : 	""
SampMemo(1) : 	""
SampMemo(2) : 	""
SampMemo(3) : 	""
SampMemo(4) : 	""
SampMemo(5) : 	""
SampMemo(6) : 	""
SampMemo(7) : 	""
SampMemo(8) : 	""
SampMemo(9) : 	""
Temperature [K] :	     298.57861
Viscosity [cp]  :	       0.89000
Refractive Index:	       1.33200
Wavelength [nm] :	     632.80000
Angle [°]       :	      55.00000
Duration [s]    :	        30
FloatDur [ms]   :	        30023
Stop TP [ms]   :	   1332217
Runs            :	         1
Mode            :	"C-CH0/1a1/0 "
MeanCR0 [kHz]   :	      39.31162
MeanCR1 [kHz]   :	      34.70161
MeanCR2 [kHz]   :	       0.00000
MeanCR3 [kHz]   :	       0.00000

"Correlation"
  3.12500E-006	  7.55143E-002	  2.90617E-001	  0.00000E+000	  0.00000E+000
  6.25000E-006	  1.34179E-001	  1.42001E-001	  0.00000E+000	  0.00000E+000
  9.37500E-006	  4.81375E-002	  1.10713E-001	  0.00000E+000	  0.00000E+000
  1.25000E-005	  1.68498E-002	 -3.79036E-002	  0.00000E+000	  0.00000E+000
  1.56250E-005	  2.46718E-002	  1.02891E-001	  0.00000E+000	  0.00000E+000
  1.87500E-005	  7.16033E-002	  1.34179E-001	  0.00000E+000	  0.00000E+000
  2.18750E-005	  5.20485E-002	  8.72471E-002	  0.00000E+000	  0.00000E+000
  2.50000E-005	  3.64046E-002	  1.02891E-001	  0.00000E+000	  0.00000E+000
  2.81250E-005	  6.37814E-002	  6.37814E-002	  0.00000E+000	  0.00000E+000
  3.12500E-005	  5.59594E-002	  1.26357E-001	  0.00000E+000	  0.00000E+000
  3.43750E-005	 -1.44379E-002	  1.18535E-001	  0.00000E+000	  0.00000E+000
  3.75000E-005	 -3.39927E-002	  7.16033E-002	  0.00000E+000	  0.00000E+000
  4.06250E-005	  7.55142E-002	  7.16033E-002	  0.00000E+000	  0.00000E+000
  4.37500E-005	  6.37814E-002	  4.81375E-002	  0.00000E+000	  0.00000E+000
  4.68750E-005	  2.07608E-002	 -1.44379E-002	  0.00000E+000	  0.00000E+000
  5.00000E-005	  5.98704E-002	  4.81375E-002	  0.00000E+000	  0.00000E+000
  5.62500E-005	 -5.35475E-002	 -4.57255E-002	  0.00000E+000	  0.00000E+000
  6.25000E-005	 -2.70497E-003	  1.68498E-002	  0.00000E+000	  0.00000E+000
  6.87500E-005	  1.20599E-003	  5.11695E-003	  0.00000E+000	  0.00000E+000
  7.50000E-005	 -4.76810E-002	 -5.74584E-002	  0.00000E+000	  0.00000E+000
  8.12500E-005	  8.52917E-002	  1.02891E-001	  0.00000E+000	  0.00000E+000
  8.75000E-005	 -4.96365E-002	 -2.22598E-002	  0.00000E+000	  0.00000E+000
  9.37500E-005	  7.35588E-002	  9.50691E-002	  0.00000E+000	  0.00000E+000
  1.00000E-004	  3.05382E-002	  7.94252E-002	  0.00000E+000	  0.00000E+000
  1.12500E-004	 -1.05269E-002	  2.07608E-002	  0.00000E+000	  0.00000E+000
  1.25000E-004	  2.27163E-002	  7.55142E-002	  0.00000E+000	  0.00000E+000
  1.37500E-004	 -8.57141E-003	 -3.59481E-002	  0.00000E+000	  0.00000E+000
  1.50000E-004	  3.44492E-002	  1.09834E-002	  0.00000E+000	  0.00000E+000
  1.62500E-004	  3.16147E-003	  2.07608E-002	  0.00000E+000	  0.00000E+000
  1.75000E-004	 -4.47478E-002	  6.57368E-002	  0.00000E+000	  0.00000E+000
  1.87500E-004	  3.73824E-002	  5.20485E-002	  0.00000E+000	  0.00000E+000
  2.00000E-004	 -4.66046E-003	 -1.05269E-002	  0.00000E+000	  0.00000E+000
  2.25000E-004	  8.05016E-003	 -1.63933E-002	  0.00000E+000	  0.00000E+000
  2.50000E-004	 -2.17709E-002	 -3.79036E-002	  0.00000E+000	  0.00000E+000
  2.75000E-004	 -2.42153E-002	 -2.03043E-002	  0.00000E+000	  0.00000E+000
  3.00000E-004	  8.05016E-003	 -2.91040E-002	  0.00000E+000	  0.00000E+000
  3.25000E-004	  1.04945E-002	  7.07242E-003	  0.00000E+000	  0.00000E+000
  3.50000E-004	 -1.98154E-002	 -5.55030E-002	  0.00000E+000	  0.00000E+000
  3.75000E-004	 -1.78600E-002	 -5.35475E-002	  0.00000E+000	  0.00000E+000
  4.00000E-004	 -1.63934E-002	 -4.47478E-002	  0.00000E+000	  0.00000E+000
  4.50000E-004	 -1.62073E-005	 -6.12708E-003	  0.00000E+000	  0.00000E+000
  5.00000E-004	  1.02501E-002	  3.16145E-003	  0.00000E+000	  0.00000E+000
  5.50000E-004	 -1.73711E-002	 -2.37264E-002	  0.00000E+000	  0.00000E+000
  6.00000E-004	  8.05015E-003	  2.76050E-002	  0.00000E+000	  0.00000E+000
  6.50000E-004	 -1.81044E-002	 -1.59045E-002	  0.00000E+000	  0.00000E+000
  7.00000E-004	 -1.71267E-002	 -1.23838E-003	  0.00000E+000	  0.00000E+000
  7.50000E-004	 -8.57143E-003	 -7.10482E-003	  0.00000E+000	  0.00000E+000
  8.00000E-004	  9.51673E-003	  2.07607E-002	  0.00000E+000	  0.00000E+000
  9.00000E-004	 -1.61489E-002	 -1.37046E-002	  0.00000E+000	  0.00000E+000
  1.00000E-003	 -1.68823E-002	 -1.10158E-002	  0.00000E+000	  0.00000E+000
  1.10000E-003	 -2.09393E-003	  4.87247E-003	  0.00000E+000	  0.00000E+000
  1.20000E-003	  2.42812E-003	 -1.17491E-002	  0.00000E+000	  0.00000E+000
  1.30000E-003	 -6.61598E-003	  7.07238E-003	  0.00000E+000	  0.00000E+000
  1.40000E-003	  8.39289E-004	  1.66053E-002	  0.00000E+000	  0.00000E+000
  1.50000E-003	 -2.21615E-003	 -9.93974E-004	  0.00000E+000	  0.00000E+000
  1.60000E-003	 -2.03288E-003	  9.61453E-004	  0.00000E+000	  0.00000E+000
  1.80000E-003	 -4.53834E-003	 -2.94951E-003	  0.00000E+000	  0.00000E+000
  2.00000E-003	  7.92785E-003	 -3.31616E-003	  0.00000E+000	  0.00000E+000
  2.20000E-003	 -5.63829E-003	  5.60572E-003	  0.00000E+000	  0.00000E+000
  2.40000E-003	  1.93919E-003	  3.03915E-003	  0.00000E+000	  0.00000E+000
  2.60000E-003	  9.51668E-003	  6.46124E-003	  0.00000E+000	  0.00000E+000
  2.80000E-003	 -1.44991E-002	 -3.43838E-003	  0.00000E+000	  0.00000E+000
  3.00000E-003	  7.19455E-003	  8.17229E-003	  0.00000E+000	  0.00000E+000
  3.20000E-003	  1.35196E-002	  1.84996E-002	  0.00000E+000	  0.00000E+000
  3.60000E-003	 -5.36299E-003	 -7.28834E-003	  0.00000E+000	  0.00000E+000
  4.00000E-003	 -1.17794E-002	 -8.75495E-003	  0.00000E+000	  0.00000E+000
  4.40000E-003	 -4.66024E-003	 -5.27175E-003	  0.00000E+000	  0.00000E+000
  4.80000E-003	  4.44497E-003	  1.69465E-003	  0.00000E+000	  0.00000E+000
  5.20000E-003	 -6.95182E-003	 -6.12727E-003	  0.00000E+000	  0.00000E+000
  5.60000E-003	  2.52047E-003	  2.91768E-003	  0.00000E+000	  0.00000E+000
  6.00000E-003	  1.06672E-004	  4.01764E-003	  0.00000E+000	  0.00000E+000
  6.40000E-003	  1.89432E-003	  5.42378E-003	  0.00000E+000	  0.00000E+000
  7.20000E-003	 -1.54305E-003	  1.05449E-003	  0.00000E+000	  0.00000E+000
  8.00000E-003	 -2.24581E-003	 -5.64891E-004	  0.00000E+000	  0.00000E+000
  8.80000E-003	  2.88733E-003	  2.73499E-003	  0.00000E+000	  0.00000E+000
  9.60000E-003	  1.46613E-003	  9.70054E-003	  0.00000E+000	  0.00000E+000
  1.04000E-002	 -2.30734E-003	 -4.11005E-003	  0.00000E+000	  0.00000E+000
  1.12000E-002	  4.81184E-003	  4.68962E-003	  0.00000E+000	  0.00000E+000
  1.20000E-002	  2.74508E-004	 -5.65738E-004	  0.00000E+000	  0.00000E+000
  1.28000E-002	 -3.87326E-003	 -8.26503E-003	  0.00000E+000	  0.00000E+000
  1.44000E-002	  2.26818E-003	  5.95750E-004	  0.00000E+000	  0.00000E+000
  1.60000E-002	 -2.44919E-004	  3.10121E-003	  0.00000E+000	  0.00000E+000
  1.76000E-002	  3.71187E-003	  5.10253E-003	  0.00000E+000	  0.00000E+000
  1.92000E-002	  7.32822E-004	  2.81095E-003	  0.00000E+000	  0.00000E+000
  2.08000E-002	  4.65467E-004	 -6.17205E-003	  0.00000E+000	  0.00000E+000
  2.24000E-002	 -7.26575E-004	 -1.91056E-003	  0.00000E+000	  0.00000E+000
  2.40000E-002	  2.05333E-004	  2.99342E-003	  0.00000E+000	  0.00000E+000
  2.56000E-002	  1.02696E-003	  3.01729E-003	  0.00000E+000	  0.00000E+000
  2.88000E-002	  9.28137E-004	 -2.23806E-003	  0.00000E+000	  0.00000E+000
  3.20000E-002	 -2.78338E-004	 -5.79639E-004	  0.00000E+000	  0.00000E+000
  3.52000E-002	  1.08515E-003	  1.22307E-003	  0.00000E+000	  0.00000E+000
  3.84000E-002	 -2.99004E-003	 -2.88650E-003	  0.00000E+000	  0.00000E+000
  4.16000E-002	 -7.86306E-004	 -1.69488E-003	  0.00000E+000	  0.00000E+000
  4.48000E-002	  1.61986E-003	  1.42931E-003	  0.00000E+000	  0.00000E+000
  4.80000E-002	  1.84477E-003	  6.18774E-004	  0.00000E+000	  0.00000E+000
  5.12000E-002	  7.68677E-004	 -1.15243E-003	  0.00000E+000	  0.00000E+000
  5.76000E-002	  9.36726E-004	  1.99601E-004	  0.00000E+000	  0.00000E+000
  6.40000E-002	  5.14211E-004	 -2.86348E-003	  0.00000E+000	  0.00000E+000
  7.04000E-002	 -9.52399E-004	 -7.92086E-005	  0.00000E+000	  0.00000E+000
  7.68000E-002	  1.57604E-003	  1.38274E-003	  0.00000E+000	  0.00000E+000
  8.32000E-002	 -1.47750E-003	 -5.71410E-005	  0.00000E+000	  0.00000E+000
  8.96000E-002	 -1.01918E-003	 -2.81086E-003	  0.00000E+000	  0.00000E+000
  9.60000E-002	 -5.86262E-005	 -8.93568E-004	  0.00000E+000	  0.00000E+000
  1.02400E-001	  8.42777E-004	  6.04551E-004	  0.00000E+000	  0.00000E+000
  1.15200E-001	 -7.78520E-004	 -1.37958E-003	  0.00000E+000	  0.00000E+000
  1.28000E-001	 -7.28444E-004	  6.64600E-004	  0.00000E+000	  0.00000E+000
  1.40800E-001	  5.03764E-004	  1.36353E-003	  0.00000E+000	  0.00000E+000
  1.53600E-001	  3.12848E-004	  8.24162E-004	  0.00000E+000	  0.00000E+000
  1.66400E-001	  7.68243E-004	 -8.01671E-005	  0.00000E+000	  0.00000E+000
  1.79200E-001	  9.36294E-004	  9.56777E-004	  0.00000E+000	  0.00000E+000
  1.92000E-001	  7.17535E-004	  1.64595E-003	  0.00000E+000	  0.00000E+000
  2.04800E-001	  2.76336E-004	 -9.41548E-004	  0.00000E+000	  0.00000E+000
  2.30400E-001	 -4.09715E-004	 -1.87729E-003	  0.00000E+000	  0.00000E+000
  2.56000E-001	  6.17634E-004	  4.28534E-004	  0.00000E+000	  0.00000E+000
  2.81600E-001	  7.03038E-004	  1.63057E-003	  0.00000E+000	  0.00000E+000
  3.07200E-001	 -1.66341E-004	 -3.99415E-004	  0.00000E+000	  0.00000E+000
  3.32800E-001	 -6.04128E-004	 -1.85532E-004	  0.00000E+000	  0.00000E+000
  3.58400E-001	  9.11782E-004	  9.77669E-004	  0.00000E+000	  0.00000E+000
  3.84000E-001	  2.49128E-004	 -2.80802E-004	  0.00000E+000	  0.00000E+000
  4.09600E-001	  1.85276E-004	 -4.22226E-004	  0.00000E+000	  0.00000E+000
  4.60800E-001	 -2.07475E-004	 -4.34795E-004	  0.00000E+000	  0.00000E+000
  5.12000E-001	 -2.05819E-005	  7.07148E-004	  0.00000E+000	  0.00000E+000
  5.63200E-001	  2.61708E-004	  7.27943E-004	  0.00000E+000	  0.00000E+000
  6.14400E-001	  6.91897E-004	  7.65235E-004	  0.00000E+000	  0.00000E+000
  6.65600E-001	  6.50419E-005	  3.74702E-004	  0.00000E+000	  0.00000E+000
  7.16800E-001	 -4.90605E-004	 -8.81723E-004	  0.00000E+000	  0.00000E+000
  7.68000E-001	 -2.89552E-004	 -6.64865E-004	  0.00000E+000	  0.00000E+000
  8.19200E-001	  8.10105E-005	  5.09317E-004	  0.00000E+000	  0.00000E+000
  9.21600E-001	  1.47595E-004	  7.80427E-005	  0.00000E+000	  0.00000E+000
  1.02400E+000	  1.17215E-004	  8.64442E-005	  0.00000E+000	  0.00000E+000
  1.12640E+000	 -6.28693E-004	 -6.02212E-004	  0.00000E+000	  0.00000E+000
  1.22880E+000	  1.54532E-004	  1.32016E-004	  0.00000E+000	  0.00000E+000
  1.33120E+000	 -5.07593E-004	 -7.41581E-004	  0.00000E+000	  0.00000E+000
  1.43360E+000	  1.76060E-004	 -5.98906E-005	  0.00000E+000	  0.00000E+000
  1.53600E+000	  5.38834E-004	  5.56570E-005	  0.00000E+000	  0.00000E+000
  1.63840E+000	  1.83580E-004	  5.72999E-004	  0.00000E+000	  0.00000E+000
  1.84320E+000	  3.82935E-004	  5.01640E-004	  0.00000E+000	  0.00000E+000
  2.04800E+000	 -4.34126E-004	 -4.52789E-004	  0.00000E+000	  0.00000E+000
  2.25280E+000	  1.27347E-005	 -1.06765E-004	  0.00000E+000	  0.00000E+000
  2.45760E+000	 -1.15573E-004	 -6.19239E-004	  0.00000E+000	  0.00000E+000
  2.66240E+000	  3.53734E-004	  5.42925E-004	  0.00000E+000	  0.00000E+000
  2.86720E+000	  4.27722E-004	  7.66884E-004	  0.00000E+000	  0.00000E+000
  3.07200E+000	 -1.09957E-004	 -8.35634E-005	  0.00000E+000	  0.00000E+000
  3.27680E+000	 -1.82374E-004	  1.19158E-005	  0.00000E+000	  0.00000E+000
  3.68640E+000	  2.08172E-004	  1.85466E-004	  0.00000E+000	  0.00000E+000
  4.09600E+000	 -1.33886E-004	 -4.72952E-005	  0.00000E+000	  0.00000E+000
  4.50560E+000	 -5.98812E-005	  1.64140E-004	  0.00000E+000	  0.00000E+000
  4.91520E+000	 -1.51559E-004	 -3.03446E-004	  0.00000E+000	  0.00000E+000
  5.32480E+000	 -3.01893E-005	 -2.25028E-004	  0.00000E+000	  0.00000E+000
  5.73440E+000	  4.62379E-005	 -2.06316E-005	  0.00000E+000	  0.00000E+000
  6.14400E+000	 -1.43377E-004	 -1.82956E-004	  0.00000E+000	  0.00000E+000
  6.55360E+000	 -1.97153E-004	 -3.86945E-006	  0.00000E+000	  0.00000E+000
  7.37280E+000	 -1.42906E-005	 -6.93434E-005	  0.00000E+000	  0.00000E+000
  8.19200E+000	  5.67525E-009	  2.97780E-004	  0.00000E+000	  0.00000E+000
  9.01120E+000	 -1.44643E-004	 -1.30249E-004	  0.00000E+000	  0.00000E+000
  9.83040E+000	 -2.27180E-004	 -5.44434E-005	  0.00000E+000	  0.00000E+000
  1.06496E+001	  9.43538E-006	 -6.76895E-005	  0.00000E+000	  0.00000E+000
  1.14688E+001	  4.88831E-005	  4.15097E-005	  0.00000E+000	  0.00000E+000
  1.22880E+001	  9.61425E-005	  1.69257E-004	  0.00000E+000	  0.00000E+000
  1.31072E+001	 -8.44924E-005	 -1.71692E-004	  0.00000E+000	  0.00000E+000
  1.47456E+001	  1.17294E-005	 -5.25401E-005	  0.00000E+000	  0.00000E+000
  1.63840E+001	  6.24870E-005	  8.91652E-005	  0.00000E+000	  0.00000E+000
  1.80224E+001	  5.46353E-006	  3.38577E-005	  0.00000E+000	  0.00000E+000
  1.96608E+001	  4.19845E-005	  1.34450E-005	  0.00000E+000	  0.00000E+000
  2.12992E+001	 -1.01347E-004	 -1.62740E-004	  0.00000E+000	  0.00000E+000
  2.29376E+001	 -2.52251E-006	 -8.45814E-005	  0.00000E+000	  0.00000E+000
  2.45760E+001	 -1.11692E-004	 -1.64264E-004	  0.00000E+000	  0.00000E+000
  2.62144E+001	 -2.34624E-005	 -6.81831E-005	  0.00000E+000	  0.00000E+000
  2.94912E+001	 -1.49056E-005	 -4.62722E-005	  0.00000E+000	  0.00000E+000
  3.27680E+001	  6.38474E-005	  1.64613E-004	  0.00000E+000	  0.00000E+000
  3.60448E+001	 -3.33855E-005	 -7.88859E-005	  0.00000E+000	  0.00000E+000
  3.93216E+001	 -4.15877E-006	  6.75546E-006	  0.00000E+000	  0.00000E+000
  4.25984E+001	 -6.61068E-005	 -1.06099E-004	  0.00000E+000	  0.00000E+000
  4.58752E+001	  1.35453E-005	  1.22153E-004	  0.00000E+000	  0.00000E+000
  4.91520E+001	 -1.31833E-005	  7.85206E-005	  0.00000E+000	  0.00000E+000
  5.24288E+001	 -5.15982E-005	 -1.48366E-005	  0.00000E+000	  0.00000E+000
  5.89824E+001	 -2.64084E-005	 -5.98293E-005	  0.00000E+000	  0.00000E+000
  6.55360E+001	  7.83768E-005	  8.68545E-005	  0.00000E+000	  0.00000E+000
  7.20896E+001	 -4.63175E-005	 -3.66575E-005	  0.00000E+000	  0.00000E+000
  7.86432E+001	  5.29651E-005	  1.08157E-004	  0.00000E+000	  0.00000E+000
  8.51968E+001	  4.97384E-005	  5.19957E-005	  0.00000E+000	  0.00000E+000
  9.17504E+001	 -3.99563E-005	 -5.01629E-005	  0.00000E+000	  0.00000E+000
  9.83040E+001	 -1.75902E-005	 -6.48915E-005	  0.00000E+000	  0.00000E+000
  1.04858E+002	  5.74590E-005	  1.02473E-005	  0.00000E+000	  0.00000E+000
  1.17965E+002	 -2.69094E-005	 -1.90458E-005	  0.00000E+000	  0.00000E+000
  1.31072E+002	  1.05968E-005	  7.82272E-008	  0.00000E+000	  0.00000E+000
  1.44179E+002	 -1.85950E-005	 -1.63991E-007	  0.00000E+000	  0.00000E+000
  1.57286E+002	  7.99722E-005	  3.56874E-005	  0.00000E+000	  0.00000E+000
  1.70394E+002	 -2.65893E-005	  3.67921E-005	  0.00000E+000	  0.00000E+000
  1.83501E+002	  5.09356E-005	  1.19071E-004	  0.00000E+000	  0.00000E+000
  1.96608E+002	 -6.85597E-007	  5.55495E-005	  0.00000E+000	  0.00000E+000
  2.09715E+002	  3.61101E-006	  2.31762E-005	  0.00000E+000	  0.00000E+000
  2.35930E+002	 -3.15614E-005	 -3.89340E-005	  0.00000E+000	  0.00000E+000
  2.62144E+002	  2.09254E-005	  3.91320E-005	  0.00000E+000	  0.00000E+000
  2.88358E+002	 -5.22032E-005	 -5.11463E-005	  0.00000E+000	  0.00000E+000
  3.14573E+002	 -5.14476E-005	 -9.68036E-005	  0.00000E+000	  0.00000E+000
  3.40787E+002	  1.91848E-005	 -1.17792E-005	  0.00000E+000	  0.00000E+000
  3.67002E+002	 -9.67646E-006	 -4.78848E-005	  0.00000E+000	  0.00000E+000
  3.93216E+002	  2.48973E-005	  2.79544E-005	  0.00000E+000	  0.00000E+000
  4.19430E+002	  5.39159E-006	 -6.96377E-007	  0.00000E+000	  0.00000E+000
  4.71859E+002	  1.91033E-005	  3.31555E-005	  0.00000E+000	  0.00000E+000
  5.24288E+002	 -3.02554E-005	 -2.45985E-005	  0.00000E+000	  0.00000E+000
  5.76717E+002	 -1.83068E-005	 -3.06549E-005	  0.00000E+000	  0.00000E+000
  6.29146E+002	 -1.17538E-005	 -2.92011E-005	  0.00000E+000	  0.00000E+000
  6.81574E+002	 -1.01714E-005	  1.07298E-005	  0.00000E+000	  0.00000E+000
  7.34003E+002	 -1.50924E-005	  1.43376E-006	  0.00000E+000	  0.00000E+000
  7.86432E+002	 -8.43104E-006	 -1.22025E-006	  0.00000E+000	  0.00000E+000
  8.38861E+002	 -1.01874E-005	  5.96906E-006	  0.00000E+000	  0.00000E+000
  9.43718E+002	 -8.72913E-006	  8.00558E-006	  0.00000E+000	  0.00000E+000
  1.04858E+003	 -1.77537E-006	 -1.93680E-005	  0.00000E+000	  0.00000E+000
  1.15343E+003	 -8.82299E-006	 -9.88885E-006	  0.00000E+000	  0.00000E+000
  1.25829E+003	  1.25617E-005	  2.09404E-005	  0.00000E+000	  0.00000E+000
  1.36315E+003	 -1.05339E-005	 -1.85954E-005	  0.00000E+000	  0.00000E+000
  1.46801E+003	  9.72816E-006	  1.91439E-005	  0.00000E+000	  0.00000E+000
  1.57286E+003	 -1.17868E-005	 -6.52163E-006	  0.00000E+000	  0.00000E+000
  1.67772E+003	 -2.49687E-006	 -7.49591E-006	  0.00000E+000	  0.00000E+000
  1.88744E+003	 -1.19812E-005	 -5.90757E-006	  0.00000E+000	  0.00000E+000
  2.09715E+003	  1.13996E-005	  8.10147E-006	  0.00000E+000	  0.00000E+000
  2.30687E+003	 -1.51106E-006	  8.18426E-006	  0.00000E+000	  0.00000E+000
  2.51658E+003	  2.95428E-007	  8.01052E-006	  0.00000E+000	  0.00000E+000
  2.72630E+003	 -1.10585E-005	 -9.27586E-006	  0.00000E+000	  0.00000E+000
  2.93601E+003	  6.76865E-007	  5.86513E-006	  0.00000E+000	  0.00000E+000
  3.14573E+003	  1.24194E-005	 -6.55401E-006	  0.00000E+000	  0.00000E+000
  3.35544E+003	  1.28359E-005	  6.60884E-006	  0.00000E+000	  0.00000E+000
  3.77487E+003	  1.95197E-006	 -2.00992E-006	  0.00000E+000	  0.00000E+000
  4.19430E+003	 -9.82877E-007	  2.62666E-006	  0.00000E+000	  0.00000E+000
  4.61373E+003	  3.65357E-006	 -1.29418E-006	  0.00000E+000	  0.00000E+000
  5.03317E+003	  3.83888E-006	  6.65353E-006	  0.00000E+000	  0.00000E+000
  5.45260E+003	  1.43202E-005	  1.70097E-005	  0.00000E+000	  0.00000E+000
  5.87203E+003	  1.30479E-005	  8.50033E-006	  0.00000E+000	  0.00000E+000
  6.29146E+003	 -5.38633E-006	  8.99695E-007	  0.00000E+000	  0.00000E+000
  6.71089E+003	 -2.25581E-006	 -1.51129E-005	  0.00000E+000	  0.00000E+000
  7.54975E+003	 -1.18148E-005	 -8.66295E-006	  0.00000E+000	  0.00000E+000
  8.38861E+003	  3.43293E-006	  2.87634E-006	  0.00000E+000	  0.00000E+000
  9.22747E+003	 -7.70504E-006	  9.07591E-007	  0.00000E+000	  0.00000E+000
  1.00663E+004	 -1.20545E-005	 -1.99133E-005	  0.00000E+000	  0.00000E+000
  1.09052E+004	 -6.28460E-008	 -1.46035E-008	  0.00000E+000	  0.00000E+000
  1.17441E+004	  5.91189E-006	  1.47743E-005	  0.00000E+000	  0.00000E+000
  1.25829E+004	  2.39703E-007	 -2.82380E-006	  0.00000E+000	  0.00000E+000

"Count Rate"
       0.11719	      40.46124	      34.83215	       0.00000	       0.00000
       0.23438	      39.32690	      35.08802	       0.00000	       0.00000
       0.35156	      38.97721	      35.07096	       0.00000	       0.00000
       0.46875	      39.97509	      34.07307	       0.00000	       0.00000
       0.58594	      39.71070	      34.48246	       0.00000	       0.00000
       0.70313	      41.09238	      35.01979	       0.00000	       0.00000
       0.82031	      38.95163	      33.73192	       0.00000	       0.00000
       0.93750	      38.70428	      34.32895	       0.00000	       0.00000
       1.05469	      38.63605	      34.20101	       0.00000	       0.00000
       1.17188	      39.80452	      34.06455	       0.00000	       0.00000
       1.28906	      38.59341	      33.82574	       0.00000	       0.00000
       1.40625	      39.02839	      33.39076	       0.00000	       0.00000
       1.52344	      40.00068	      35.09655	       0.00000	       0.00000
       1.64063	      39.54012	      34.51658	       0.00000	       0.00000
       1.75781	      39.51453	      35.20742	       0.00000	       0.00000
       1.87500	      39.76187	      34.41423	       0.00000	       0.00000
       1.99219	      39.79599	      33.99632	       0.00000	       0.00000
       2.10938	      39.11367	      35.31830	       0.00000	       0.00000
       2.22656	      38.89192	      34.14131	       0.00000	       0.00000
       2.34375	      39.27572	      35.09655	       0.00000	       0.00000
       2.46094	      39.36101	      34.84068	       0.00000	       0.00000
       2.57813	      39.38660	      35.13919	       0.00000	       0.00000
       2.69531	      39.36101	      34.79803	       0.00000	       0.00000
       2.81250	      39.92392	      34.36306	       0.00000	       0.00000
       2.92969	      39.59129	      34.61040	       0.00000	       0.00000
       3.04688	      39.59129	      34.25218	       0.00000	       0.00000
       3.16406	      39.91539	      34.23513	       0.00000	       0.00000
       3.28125	      39.40366	      34.67010	       0.00000	       0.00000
       3.39844	      39.45483	      35.41212	       0.00000	       0.00000
       3.51563	      39.54012	      34.84921	       0.00000	       0.00000
       3.63281	      39.65100	      33.53576	       0.00000	       0.00000
       3.75000	      39.17338	      33.97926	       0.00000	       0.00000
       3.86719	      40.76829	      34.36306	       0.00000	       0.00000
       3.98438	      39.79599	      34.75539	       0.00000	       0.00000
       4.10156	      39.06250	      35.17331	       0.00000	       0.00000
       4.21875	      39.17338	      35.77033	       0.00000	       0.00000
       4.33594	      38.72134	      34.63599	       0.00000	       0.00000
       4.45313	      38.80663	      34.03043	       0.00000	       0.00000
       4.57031	      39.29278	      35.46329	       0.00000	       0.00000
       4.68750	      39.18190	      34.21807	       0.00000	       0.00000
       4.80469	      39.24161	      34.38012	       0.00000	       0.00000
       4.92188	      39.01133	      33.86838	       0.00000	       0.00000
       5.03906	      40.38448	      34.76392	       0.00000	       0.00000
       5.15625	      39.18190	      35.83857	       0.00000	       0.00000
       5.27344	      39.54012	      34.32895	       0.00000	       0.00000
       5.39063	      38.78957	      34.51658	       0.00000	       0.00000
       5.50781	      40.49536	      35.25860	       0.00000	       0.00000
       5.62500	      38.45695	      34.43982	       0.00000	       0.00000
       5.74219	      38.80663	      34.39717	       0.00000	       0.00000
       5.85938	      39.60835	      33.47605	       0.00000	       0.00000
       5.97656	      39.67658	      34.90038	       0.00000	       0.00000
       6.09375	      39.09661	      34.57628	       0.00000	       0.00000
       6.21094	      38.53371	      34.07307	       0.00000	       0.00000
       6.32813	      39.85569	      34.75539	       0.00000	       0.00000
       6.44531	      39.98362	      35.10508	       0.00000	       0.00000
       6.56250	      39.77893	      33.33959	       0.00000	       0.00000
       6.67969	      39.33543	      34.59334	       0.00000	       0.00000
       6.79688	      38.79810	      34.26071	       0.00000	       0.00000
       6.91406	      39.24161	      34.64452	       0.00000	       0.00000
       7.03125	      38.65311	      34.78951	       0.00000	       0.00000
       7.14844	      38.94310	      34.49952	       0.00000	       0.00000
       7.26563	      39.33543	      35.66798	       0.00000	       0.00000
       7.38281	      39.93245	      33.75751	       0.00000	       0.00000
       7.50000	      39.91539	      35.59122	       0.00000	       0.00000
       7.61719	      39.59982	      35.58270	       0.00000	       0.00000
       7.73438	      39.61688	      34.71275	       0.00000	       0.00000
       7.85156	      38.96015	      34.32042	       0.00000	       0.00000
       7.96875	      39.55718	      34.09866	       0.00000	       0.00000
       8.08594	      38.33754	      35.65946	       0.00000	       0.00000
       8.20313	      39.40366	      33.87691	       0.00000	       0.00000
       8.32031	      38.17549	      35.56564	       0.00000	       0.00000
       8.43750	      38.90898	      34.92597	       0.00000	       0.00000
       8.55469	      38.72987	      34.39717	       0.00000	       0.00000
       8.67188	      39.15632	      35.56564	       0.00000	       0.00000
       8.78906	      38.58488	      34.77245	       0.00000	       0.00000
       8.90625	      40.12862	      35.41212	       0.00000	       0.00000
       9.02344	      38.23520	      34.77245	       0.00000	       0.00000
       9.14063	      39.82158	      34.96008	       0.00000	       0.00000
       9.25781	      39.44630	      34.09013	       0.00000	       0.00000
       9.37500	      40.07744	      35.03685	       0.00000	       0.00000
       9.49219	      38.90045	      34.11572	       0.00000	       0.00000
       9.60938	      39.96657	      35.49741	       0.00000	       0.00000
       9.72656	      38.55929	      36.70852	       0.00000	       0.00000
       9.84375	      38.33754	      34.87479	       0.00000	       0.00000
       9.96094	      39.27572	      34.25218	       0.00000	       0.00000
      10.07813	      39.08809	      34.57628	       0.00000	       0.00000
      10.19531	      39.01133	      34.31189	       0.00000	       0.00000
      10.31250	      38.47400	      34.05602	       0.00000	       0.00000
      10.42969	      39.39513	      34.75539	       0.00000	       0.00000
      10.54688	      38.38018	      34.68716	       0.00000	       0.00000
      10.66406	      39.05397	      34.28630	       0.00000	       0.00000
      10.78125	      40.34184	      34.34600	       0.00000	       0.00000
      10.89844	      38.73840	      35.07096	       0.00000	       0.00000
      11.01563	      38.94310	      33.99632	       0.00000	       0.00000
      11.13281	      39.17338	      34.34600	       0.00000	       0.00000
      11.25000	      39.23308	      33.84280	       0.00000	       0.00000
      11.36719	      39.71923	      34.88332	       0.00000	       0.00000
      11.48438	      39.39513	      34.02190	       0.00000	       0.00000
      11.60156	      39.86422	      34.59334	       0.00000	       0.00000
      11.71875	      39.17338	      35.51447	       0.00000	       0.00000
      11.83594	      39.45483	      34.20101	       0.00000	       0.00000
      11.95313	      39.86422	      34.74686	       0.00000	       0.00000
      12.07031	      39.47189	      34.77245	       0.00000	       0.00000
      12.18750	      38.55929	      34.37159	       0.00000	       0.00000
      12.30469	      39.11367	      34.03896	       0.00000	       0.00000
      12.42188	      39.83010	      35.35242	       0.00000	       0.00000
      12.53906	      38.48253	      34.44835	       0.00000	       0.00000
      12.65625	      39.01133	      35.18184	       0.00000	       0.00000
      12.77344	      40.12862	      35.48888	       0.00000	       0.00000
      12.89063	      39.31837	      34.46541	       0.00000	       0.00000
      13.00781	      39.85569	      34.26924	       0.00000	       0.00000
      13.12500	      39.84716	      34.07307	       0.00000	       0.00000
      13.24219	      38.64458	      34.03043	       0.00000	       0.00000
      13.35938	      38.47400	      34.84068	       0.00000	       0.00000
      13.47656	      40.52095	      33.97073	       0.00000	       0.00000
      13.59375	      38.78957	      34.98567	       0.00000	       0.00000
      13.71094	      39.23308	      34.38012	       0.00000	       0.00000
      13.82813	      39.56571	      34.06455	       0.00000	       0.00000
      13.94531	      39.36101	      33.67221	       0.00000	       0.00000
      14.06250	      37.93668	      34.43982	       0.00000	       0.00000
      14.17969	      39.71923	      33.95367	       0.00000	       0.00000
      14.29688	      40.06891	      34.38865	       0.00000	       0.00000
      14.41406	      38.74693	      35.59122	       0.00000	       0.00000
      14.53125	      38.66164	      35.35242	       0.00000	       0.00000
      14.64844	      39.21602	      34.84068	       0.00000	       0.00000
      14.76563	      39.36101	      34.20954	       0.00000	       0.00000
      14.88281	      40.28214	      35.36094	       0.00000	       0.00000
      15.00000	      39.15632	      34.39717	       0.00000	       0.00000
      15.11719	      39.07956	      35.74475	       0.00000	       0.00000
      15.23438	      39.23308	      34.63599	       0.00000	       0.00000
      15.35156	      38.58488	      34.85774	       0.00000	       0.00000
      15.46875	      40.17979	      34.45688	       0.00000	       0.00000
      15.58594	      39.17338	      34.20101	       0.00000	       0.00000
      15.70313	      39.42924	      34.98567	       0.00000	       0.00000
      15.82031	      39.64247	      34.24366	       0.00000	       0.00000
      15.93750	      39.46336	      34.93450	       0.00000	       0.00000
      16.05469	      38.38871	      34.86627	       0.00000	       0.00000
      16.17188	      39.65100	      35.36094	       0.00000	       0.00000
      16.28906	      39.33543	      34.76392	       0.00000	       0.00000
      16.40625	      39.26719	      33.77456	       0.00000	       0.00000
      16.52344	      39.25867	      34.09866	       0.00000	       0.00000
      16.64063	      39.71923	      34.84068	       0.00000	       0.00000
      16.75781	      38.29490	      34.17542	       0.00000	       0.00000
      16.87500	      38.61900	      33.69780	       0.00000	       0.00000
      16.99219	      38.03903	      35.38653	       0.00000	       0.00000
      17.10938	      39.17338	      35.62534	       0.00000	       0.00000
      17.22656	      38.78957	      34.54217	       0.00000	       0.00000
      17.34375	      38.89192	      35.66798	       0.00000	       0.00000
      17.46094	      39.79599	      34.51658	       0.00000	       0.00000
      17.57813	      38.03903	      34.45688	       0.00000	       0.00000
      17.69531	      39.92392	      34.18395	       0.00000	       0.00000
      17.81250	      38.89192	      35.10508	       0.00000	       0.00000
      17.92969	      39.12220	      34.70422	       0.00000	       0.00000
      18.04688	      39.40366	      34.61040	       0.00000	       0.00000
      18.16406	      39.16485	      35.18184	       0.00000	       0.00000
      18.28125	      39.71070	      34.86627	       0.00000	       0.00000
      18.39844	      39.50600	      34.49952	       0.00000	       0.00000
      18.51563	      38.32901	      34.90038	       0.00000	       0.00000
      18.63281	      39.12220	      33.66369	       0.00000	       0.00000
      18.75000	      39.26719	      35.07949	       0.00000	       0.00000
      18.86719	      39.09661	      34.98567	       0.00000	       0.00000
      18.98438	      38.85781	      34.08160	       0.00000	       0.00000
      19.10156	      38.75546	      33.92809	       0.00000	       0.00000
      19.21875	      38.73840	      35.33536	       0.00000	       0.00000
      19.33594	      39.15632	      35.70210	       0.00000	       0.00000
      19.45313	      38.37166	      34.24366	       0.00000	       0.00000
      19.57031	      39.54012	      33.94514	       0.00000	       0.00000
      19.68750	      38.63605	      33.85985	       0.00000	       0.00000
      19.80469	      40.80240	      34.33747	       0.00000	       0.00000
      19.92188	      39.07956	      35.88974	       0.00000	       0.00000
      20.03906	      39.00280	      34.68716	       0.00000	       0.00000
      20.15625	      38.96868	      34.66157	       0.00000	       0.00000
      20.27344	      39.31837	      35.18184	       0.00000	       0.00000
      20.39063	      38.75546	      35.36947	       0.00000	       0.00000
      20.50781	      39.79599	      35.32683	       0.00000	       0.00000
      20.62500	      39.86422	      34.75539	       0.00000	       0.00000
      20.74219	      39.62541	      34.69569	       0.00000	       0.00000
      20.85938	      38.90045	      33.03255	       0.00000	       0.00000
      20.97656	      38.93457	      34.78951	       0.00000	       0.00000
      21.09375	      38.64458	      34.82362	       0.00000	       0.00000
      21.21094	      38.97721	      35.67651	       0.00000	       0.00000
      21.32813	      39.23308	      35.14772	       0.00000	       0.00000
      21.44531	      39.50600	      35.10508	       0.00000	       0.00000
      21.56250	      39.41219	      34.90891	       0.00000	       0.00000
      21.67969	      38.55929	      35.13066	       0.00000	       0.00000
      21.79688	      38.71281	      34.39717	       0.00000	       0.00000
      21.91406	      38.88339	      33.89397	       0.00000	       0.00000
      22.03125	      39.84716	      35.01126	       0.00000	       0.00000
      22.14844	      39.26719	      34.63599	       0.00000	       0.00000
      22.26563	      38.92604	      34.72980	       0.00000	       0.00000
      22.38281	      38.39724	      33.82574	       0.00000	       0.00000
      22.50000	      38.78957	      34.64452	       0.00000	       0.00000
      22.61719	      40.20538	      34.79803	       0.00000	       0.00000
      22.73438	      40.04333	      33.98779	       0.00000	       0.00000
      22.85156	      38.71281	      35.40359	       0.00000	       0.00000
      22.96875	      39.57423	      34.67010	       0.00000	       0.00000
      23.08594	      39.95804	      34.66157	       0.00000	       0.00000
      23.20313	      39.24161	      34.38012	       0.00000	       0.00000
      23.32031	      38.98574	      33.68074	       0.00000	       0.00000
      23.43750	      39.03691	      35.09655	       0.00000	       0.00000
      23.55469	      39.97509	      33.90250	       0.00000	       0.00000
      23.67188	      39.54012	      34.43129	       0.00000	       0.00000
      23.78906	      39.72776	      34.56775	       0.00000	       0.00000
      23.90625	      38.78104	      34.64452	       0.00000	       0.00000
      24.02344	      39.10514	      34.76392	       0.00000	       0.00000
      24.14063	      39.59982	      33.57840	       0.00000	       0.00000
      24.25781	      39.73629	      34.61040	       0.00000	       0.00000
      24.37500	      39.04544	      34.89185	       0.00000	       0.00000
      24.49219	      39.73629	      35.17331	       0.00000	       0.00000
      24.60938	      39.91539	      35.69357	       0.00000	       0.00000
      24.72656	      39.07956	      34.47393	       0.00000	       0.00000
      24.84375	      38.95163	      34.87479	       0.00000	       0.00000
      24.96094	      40.06891	      34.17542	       0.00000	       0.00000
      25.07813	      39.13073	      33.56987	       0.00000	       0.00000
      25.19531	      39.55718	      35.08802	       0.00000	       0.00000
      25.31250	      38.78104	      33.93661	       0.00000	       0.00000
      25.42969	      39.19043	      34.80656	       0.00000	       0.00000
      25.54688	      38.90045	      34.14984	       0.00000	       0.00000
      25.66406	      39.37807	      34.73833	       0.00000	       0.00000
      25.78125	      40.75123	      34.78098	       0.00000	       0.00000
      25.89844	      39.92392	      35.19036	       0.00000	       0.00000
      26.01563	      39.46336	      35.34389	       0.00000	       0.00000
      26.13281	      39.42072	      33.99632	       0.00000	       0.00000
      26.25000	      39.68511	      33.97073	       0.00000	       0.00000
      26.36719	      39.42924	      35.46329	       0.00000	       0.00000
      26.48438	      39.68511	      34.94303	       0.00000	       0.00000
      26.60156	      39.01133	      34.09866	       0.00000	       0.00000
      26.71875	      38.34607	      35.10508	       0.00000	       0.00000
      26.83594	      38.90045	      34.87479	       0.00000	       0.00000
      26.95313	      39.24161	      34.50805	       0.00000	       0.00000
      27.07031	      39.61688	      35.29271	       0.00000	       0.00000
      27.18750	      38.62753	      34.94303	       0.00000	       0.00000
      27.30469	      38.78104	      35.13919	       0.00000	       0.00000
      27.42188	      39.62541	      35.31830	       0.00000	       0.00000
      27.53906	      39.08809	      34.65304	       0.00000	       0.00000
      27.65625	      38.94310	      35.06243	       0.00000	       0.00000
      27.77344	      39.46336	      35.29271	       0.00000	       0.00000
      27.89063	      39.03691	      34.57628	       0.00000	       0.00000
      28.00781	      40.10303	      34.14984	       0.00000	       0.00000
      28.12500	      39.69364	      33.83427	       0.00000	       0.00000
      28.24219	      38.14138	      36.31618	       0.00000	       0.00000
      28.35938	      39.75334	      33.76603	       0.00000	       0.00000
      28.47656	      38.60194	      35.30977	       0.00000	       0.00000
      28.59375	      39.61688	      35.30124	       0.00000	       0.00000
      28.71094	      39.61688	      35.11361	       0.00000	       0.00000
      28.82813	      39.19896	      35.41212	       0.00000	       0.00000
      28.94531	      39.79599	      34.07307	       0.00000	       0.00000
      29.06250	      39.08809	      35.57417	       0.00000	       0.00000
      29.17969	      39.47189	      34.95156	       0.00000	       0.00000
      29.29688	      39.65100	      35.79592	       0.00000	       0.00000
      29.41406	      38.90898	      34.21807	       0.00000	       0.00000
      29.53125	      37.98785	      34.55922	       0.00000	       0.00000
      29.64844	      40.24802	      35.25007	       0.00000	       0.00000
      29.76563	      38.84928	      34.98567	       0.00000	       0.00000
      29.88281	      38.84928	      34.95156	       0.00000	       0.00000

Monitor Diode	1752081.25

"Cumulant 1.Order"
FluctuationFreq. [1/ms]	-9.3292E+003
DiffCoefficient [µm²/s]	-6.2537E+004
Hydrodyn. Radius [nm]	-3.9274E-003

"Cumulant 2.Order"
FluctuationFreq. [1/ms]	-1.9210E+004
DiffCoefficient [µm²/s]	-1.2877E+005
Hydrodyn. Radius [nm]	-1.9073E-003
Expansion Parameter µ2	-4.8054E+008

"Cumulant 3.Order"
FluctuationFreq. [1/ms]	 1.3011E+005
DiffCoefficient [µm²/s]	 8.7220E+005
Hydrodyn. Radius [nm]	 2.8160E-004
Expansion Parameter µ2	 1.5470E+010
Expansion Parameter µ3	 7.8539E+014

