ALV-7004 or ALV-7004/FAST
Date :	"13-Nov-18"
Time :	"10:38:10"
Samplename : 	""
SampMemo(0) : 	""
SampMemo(1) : 	""
SampMemo(2) : 	""
SampMemo(3) : 	""
SampMemo(4) : 	""
SampMemo(5) : 	""
SampMemo(6) : 	""
SampMemo(7) : 	""
SampMemo(8) : 	""
SampMemo(9) : 	""
Temperature [K] :	     298.57524
Viscosity [cp]  :	       0.89000
Refractive Index:	       1.33200
Wavelength [nm] :	     632.80000
Angle [°]       :	      40.00000
Duration [s]    :	        30
FloatDur [ms]   :	        30008
Stop TP [ms]   :	    696785
Runs            :	         1
Mode            :	"C-CH0/1a1/0 "
MeanCR0 [kHz]   :	      50.77225
MeanCR1 [kHz]   :	      44.27736
MeanCR2 [kHz]   :	       0.00000
MeanCR3 [kHz]   :	       0.00000

"Correlation"
  3.12500E-006	  1.57565E-002	  1.51690E-003	  0.00000E+000	  0.00000E+000
  6.25000E-006	 -4.35751E-002	 -1.07653E-001	  0.00000E+000	  0.00000E+000
  9.37500E-006	  2.28763E-002	  3.94891E-002	  0.00000E+000	  0.00000E+000
  1.25000E-005	 -4.59484E-002	 -9.34136E-002	  0.00000E+000	  0.00000E+000
  1.56250E-005	 -1.03494E-002	 -4.12018E-002	  0.00000E+000	  0.00000E+000
  1.87500E-005	 -8.86671E-002	 -1.12400E-001	  0.00000E+000	  0.00000E+000
  2.18750E-005	  3.71158E-002	  8.69544E-002	  0.00000E+000	  0.00000E+000
  2.50000E-005	 -3.17088E-002	 -7.44275E-002	  0.00000E+000	  0.00000E+000
  2.81250E-005	  5.61019E-002	  7.74613E-002	  0.00000E+000	  0.00000E+000
  3.12500E-005	  5.61019E-002	  1.51690E-003	  0.00000E+000	  0.00000E+000
  3.43750E-005	 -1.03494E-002	  2.99961E-002	  0.00000E+000	  0.00000E+000
  3.75000E-005	 -8.56359E-004	 -1.74692E-002	  0.00000E+000	  0.00000E+000
  4.06250E-005	 -8.56359E-004	  1.10100E-002	  0.00000E+000	  0.00000E+000
  4.37500E-005	  2.76228E-002	 -9.81601E-002	  0.00000E+000	  0.00000E+000
  4.68750E-005	 -7.44275E-002	 -1.45625E-001	  0.00000E+000	  0.00000E+000
  5.00000E-005	  3.23693E-002	  5.84752E-002	  0.00000E+000	  0.00000E+000
  5.62500E-005	  3.47426E-002	  2.28763E-002	  0.00000E+000	  0.00000E+000
  6.25000E-005	  5.72886E-002	  7.27148E-002	  0.00000E+000	  0.00000E+000
  6.87500E-005	  3.35559E-002	 -7.97615E-003	  0.00000E+000	  0.00000E+000
  7.50000E-005	 -2.69623E-002	  3.94891E-002	  0.00000E+000	  0.00000E+000
  8.12500E-005	 -1.62826E-002	  1.81297E-002	  0.00000E+000	  0.00000E+000
  8.75000E-005	 -3.22962E-003	  5.37287E-002	  0.00000E+000	  0.00000E+000
  9.37500E-005	  1.51690E-003	  3.71158E-002	  0.00000E+000	  0.00000E+000
  1.00000E-004	  1.75364E-002	  7.45006E-003	  0.00000E+000	  0.00000E+000
  1.12500E-004	  2.70295E-002	  1.69431E-002	  0.00000E+000	  0.00000E+000
  1.25000E-004	 -5.30681E-002	 -1.74692E-002	  0.00000E+000	  0.00000E+000
  1.37500E-004	  3.88958E-002	  5.72886E-002	  0.00000E+000	  0.00000E+000
  1.50000E-004	  1.04166E-002	  3.35559E-002	  0.00000E+000	  0.00000E+000
  1.62500E-004	  7.45006E-003	 -1.03494E-002	  0.00000E+000	  0.00000E+000
  1.75000E-004	  5.96618E-002	  8.45811E-002	  0.00000E+000	  0.00000E+000
  1.87500E-004	 -1.09427E-002	 -1.74692E-002	  0.00000E+000	  0.00000E+000
  2.00000E-004	  1.63498E-002	  5.01688E-002	  0.00000E+000	  0.00000E+000
  2.25000E-004	  2.49529E-002	  1.51689E-003	  0.00000E+000	  0.00000E+000
  2.50000E-004	 -1.27227E-002	  3.89016E-003	  0.00000E+000	  0.00000E+000
  2.75000E-004	  3.00018E-003	  9.23577E-004	  0.00000E+000	  0.00000E+000
  3.00000E-004	  3.30261E-004	  3.30261E-004	  0.00000E+000	  0.00000E+000
  3.25000E-004	  1.63498E-002	  3.29626E-002	  0.00000E+000	  0.00000E+000
  3.50000E-004	 -2.10291E-002	 -1.50959E-002	  0.00000E+000	  0.00000E+000
  3.75000E-004	 -1.39093E-002	 -3.05222E-002	  0.00000E+000	  0.00000E+000
  4.00000E-004	 -1.18327E-002	 -1.03494E-002	  0.00000E+000	  0.00000E+000
  4.50000E-004	  1.62014E-002	  2.55462E-002	  0.00000E+000	  0.00000E+000
  5.00000E-004	 -1.18327E-002	 -7.67951E-003	  0.00000E+000	  0.00000E+000
  5.50000E-004	  1.07133E-002	  7.74669E-003	  0.00000E+000	  0.00000E+000
  6.00000E-004	 -9.60779E-003	  1.48665E-002	  0.00000E+000	  0.00000E+000
  6.50000E-004	 -9.60779E-003	 -2.39957E-002	  0.00000E+000	  0.00000E+000
  7.00000E-004	 -4.56461E-003	  3.00017E-003	  0.00000E+000	  0.00000E+000
  7.50000E-004	  8.78500E-003	  1.81297E-002	  0.00000E+000	  0.00000E+000
  8.00000E-004	  2.17637E-002	  2.71778E-002	  0.00000E+000	  0.00000E+000
  9.00000E-004	  5.96672E-003	  1.11582E-002	  0.00000E+000	  0.00000E+000
  1.00000E-003	  1.88767E-003	  1.66518E-003	  0.00000E+000	  0.00000E+000
  1.10000E-003	  3.00014E-003	  6.56004E-003	  0.00000E+000	  0.00000E+000
  1.20000E-003	 -7.16039E-003	 -1.34644E-002	  0.00000E+000	  0.00000E+000
  1.30000E-003	 -5.15795E-003	 -5.00962E-003	  0.00000E+000	  0.00000E+000
  1.40000E-003	 -1.22723E-003	 -1.00474E-003	  0.00000E+000	  0.00000E+000
  1.50000E-003	  3.29680E-003	  4.78550E-004	  0.00000E+000	  0.00000E+000
  1.60000E-003	  8.49319E-004	 -2.93307E-003	  0.00000E+000	  0.00000E+000
  1.80000E-003	 -1.40948E-002	 -2.30316E-002	  0.00000E+000	  0.00000E+000
  2.00000E-003	 -6.56713E-003	 -5.38050E-003	  0.00000E+000	  0.00000E+000
  2.20000E-003	  5.63293E-003	  1.50889E-002	  0.00000E+000	  0.00000E+000
  2.40000E-003	  4.04332E-004	  3.37091E-003	  0.00000E+000	  0.00000E+000
  2.60000E-003	  1.85054E-003	 -3.82304E-003	  0.00000E+000	  0.00000E+000
  2.80000E-003	 -2.52516E-003	 -4.63885E-003	  0.00000E+000	  0.00000E+000
  3.00000E-003	 -1.59811E-003	  8.85908E-003	  0.00000E+000	  0.00000E+000
  3.20000E-003	  1.31307E-003	  4.04225E-004	  0.00000E+000	  0.00000E+000
  3.60000E-003	  3.85320E-003	  5.29908E-003	  0.00000E+000	  0.00000E+000
  4.00000E-003	  5.63315E-003	  3.66746E-003	  0.00000E+000	  0.00000E+000
  4.40000E-003	 -1.24561E-003	 -3.67918E-006	  0.00000E+000	  0.00000E+000
  4.80000E-003	 -1.70222E-004	  2.77749E-003	  0.00000E+000	  0.00000E+000
  5.20000E-003	  5.70731E-003	  1.26784E-002	  0.00000E+000	  0.00000E+000
  5.60000E-003	 -3.45200E-003	  4.78390E-004	  0.00000E+000	  0.00000E+000
  6.00000E-003	  2.75928E-003	  4.74285E-003	  0.00000E+000	  0.00000E+000
  6.40000E-003	 -4.64779E-003	 -3.56313E-003	  0.00000E+000	  0.00000E+000
  7.20000E-003	  1.07215E-003	 -2.24671E-003	  0.00000E+000	  0.00000E+000
  8.00000E-003	  4.32612E-003	  3.44541E-003	  0.00000E+000	  0.00000E+000
  8.80000E-003	 -6.89257E-004	  3.11167E-003	  0.00000E+000	  0.00000E+000
  9.60000E-003	 -3.18336E-003	 -6.30787E-003	  0.00000E+000	  0.00000E+000
  1.04000E-002	 -5.96878E-004	 -5.30665E-003	  0.00000E+000	  0.00000E+000
  1.12000E-002	  4.58536E-003	  3.31497E-003	  0.00000E+000	  0.00000E+000
  1.20000E-002	  8.58598E-004	  2.55683E-004	  0.00000E+000	  0.00000E+000
  1.28000E-002	 -8.14132E-004	 -3.86873E-003	  0.00000E+000	  0.00000E+000
  1.44000E-002	  2.21734E-003	  4.26155E-003	  0.00000E+000	  0.00000E+000
  1.60000E-002	 -1.37381E-004	 -1.25444E-003	  0.00000E+000	  0.00000E+000
  1.76000E-002	 -8.04861E-004	  1.09102E-003	  0.00000E+000	  0.00000E+000
  1.92000E-002	  8.17815E-004	 -1.39284E-003	  0.00000E+000	  0.00000E+000
  2.08000E-002	  3.76122E-003	  7.91481E-003	  0.00000E+000	  0.00000E+000
  2.24000E-002	  5.85723E-004	 -1.32697E-004	  0.00000E+000	  0.00000E+000
  2.40000E-002	 -1.52333E-003	 -2.24639E-003	  0.00000E+000	  0.00000E+000
  2.56000E-002	  7.12845E-004	  2.91541E-003	  0.00000E+000	  0.00000E+000
  2.88000E-002	  2.34215E-003	  5.61315E-003	  0.00000E+000	  0.00000E+000
  3.20000E-002	  1.55647E-003	  1.31623E-003	  0.00000E+000	  0.00000E+000
  3.52000E-002	 -2.01470E-003	 -5.10300E-003	  0.00000E+000	  0.00000E+000
  3.84000E-002	 -4.06957E-004	 -1.04313E-003	  0.00000E+000	  0.00000E+000
  4.16000E-002	  5.01561E-004	  1.04275E-003	  0.00000E+000	  0.00000E+000
  4.48000E-002	 -4.34768E-004	 -9.36520E-004	  0.00000E+000	  0.00000E+000
  4.80000E-002	 -3.06330E-003	 -3.88522E-003	  0.00000E+000	  0.00000E+000
  5.12000E-002	  2.14569E-003	  7.64840E-004	  0.00000E+000	  0.00000E+000
  5.76000E-002	  4.27930E-004	 -4.61199E-004	  0.00000E+000	  0.00000E+000
  6.40000E-002	 -5.56943E-004	  2.91662E-003	  0.00000E+000	  0.00000E+000
  7.04000E-002	  4.03343E-004	 -6.15581E-005	  0.00000E+000	  0.00000E+000
  7.68000E-002	  8.51026E-004	  5.61890E-004	  0.00000E+000	  0.00000E+000
  8.32000E-002	 -8.14979E-005	  1.05621E-003	  0.00000E+000	  0.00000E+000
  8.96000E-002	 -1.37313E-003	 -2.19843E-003	  0.00000E+000	  0.00000E+000
  9.60000E-002	  9.01638E-004	  1.29427E-003	  0.00000E+000	  0.00000E+000
  1.02400E-001	 -2.30627E-004	 -3.55935E-004	  0.00000E+000	  0.00000E+000
  1.15200E-001	  9.42533E-004	  1.16210E-004	  0.00000E+000	  0.00000E+000
  1.28000E-001	 -1.10570E-003	 -6.03422E-004	  0.00000E+000	  0.00000E+000
  1.40800E-001	 -6.61586E-004	 -6.03268E-004	  0.00000E+000	  0.00000E+000
  1.53600E-001	 -1.38752E-004	 -9.28899E-004	  0.00000E+000	  0.00000E+000
  1.66400E-001	 -1.08017E-003	 -7.11193E-004	  0.00000E+000	  0.00000E+000
  1.79200E-001	  9.70453E-006	  2.54111E-004	  0.00000E+000	  0.00000E+000
  1.92000E-001	 -9.21791E-004	 -2.79245E-003	  0.00000E+000	  0.00000E+000
  2.04800E-001	 -8.23028E-004	 -1.55164E-003	  0.00000E+000	  0.00000E+000
  2.30400E-001	  3.65598E-004	 -5.26569E-004	  0.00000E+000	  0.00000E+000
  2.56000E-001	  4.55672E-004	  7.82338E-004	  0.00000E+000	  0.00000E+000
  2.81600E-001	  5.21440E-005	 -6.70188E-004	  0.00000E+000	  0.00000E+000
  3.07200E-001	  8.01295E-004	  1.22675E-003	  0.00000E+000	  0.00000E+000
  3.32800E-001	 -6.22674E-004	 -2.69230E-004	  0.00000E+000	  0.00000E+000
  3.58400E-001	  2.53821E-004	  2.24860E-004	  0.00000E+000	  0.00000E+000
  3.84000E-001	 -2.37369E-004	  4.22519E-004	  0.00000E+000	  0.00000E+000
  4.09600E-001	  4.54216E-004	  2.73241E-004	  0.00000E+000	  0.00000E+000
  4.60800E-001	  3.40078E-004	  3.68112E-004	  0.00000E+000	  0.00000E+000
  5.12000E-001	  3.33401E-005	  8.67710E-004	  0.00000E+000	  0.00000E+000
  5.63200E-001	  1.70229E-004	  4.38589E-004	  0.00000E+000	  0.00000E+000
  6.14400E-001	 -6.00539E-005	 -5.95549E-007	  0.00000E+000	  0.00000E+000
  6.65600E-001	 -2.35505E-004	 -5.88714E-004	  0.00000E+000	  0.00000E+000
  7.16800E-001	 -5.89961E-004	 -3.67296E-004	  0.00000E+000	  0.00000E+000
  7.68000E-001	 -5.98429E-004	 -6.97936E-004	  0.00000E+000	  0.00000E+000
  8.19200E-001	 -3.11768E-004	 -3.55865E-004	  0.00000E+000	  0.00000E+000
  9.21600E-001	 -6.54792E-005	  6.37793E-005	  0.00000E+000	  0.00000E+000
  1.02400E+000	 -1.16676E-004	 -2.60946E-004	  0.00000E+000	  0.00000E+000
  1.12640E+000	  3.87733E-004	  5.20270E-004	  0.00000E+000	  0.00000E+000
  1.22880E+000	  1.55698E-004	 -7.55370E-005	  0.00000E+000	  0.00000E+000
  1.33120E+000	 -6.05642E-005	 -2.97832E-004	  0.00000E+000	  0.00000E+000
  1.43360E+000	 -2.17402E-005	  5.23946E-004	  0.00000E+000	  0.00000E+000
  1.53600E+000	 -4.73933E-004	 -6.69713E-004	  0.00000E+000	  0.00000E+000
  1.63840E+000	 -2.51410E-004	 -5.58820E-004	  0.00000E+000	  0.00000E+000
  1.84320E+000	 -8.64021E-005	 -9.55084E-007	  0.00000E+000	  0.00000E+000
  2.04800E+000	 -4.04576E-004	 -5.77217E-004	  0.00000E+000	  0.00000E+000
  2.25280E+000	 -4.81973E-005	 -4.10008E-004	  0.00000E+000	  0.00000E+000
  2.45760E+000	  2.96262E-004	  4.19394E-004	  0.00000E+000	  0.00000E+000
  2.66240E+000	  3.28756E-004	  4.14291E-004	  0.00000E+000	  0.00000E+000
  2.86720E+000	  1.03412E-004	  3.99957E-004	  0.00000E+000	  0.00000E+000
  3.07200E+000	 -2.56124E-005	 -8.54328E-005	  0.00000E+000	  0.00000E+000
  3.27680E+000	  8.92638E-005	 -2.07220E-005	  0.00000E+000	  0.00000E+000
  3.68640E+000	  8.86047E-005	  1.17992E-004	  0.00000E+000	  0.00000E+000
  4.09600E+000	  8.08488E-005	  2.19626E-004	  0.00000E+000	  0.00000E+000
  4.50560E+000	 -6.37660E-005	 -2.64248E-004	  0.00000E+000	  0.00000E+000
  4.91520E+000	  4.78322E-005	  1.43346E-005	  0.00000E+000	  0.00000E+000
  5.32480E+000	 -5.62268E-005	 -3.10605E-005	  0.00000E+000	  0.00000E+000
  5.73440E+000	  1.75221E-004	  3.90658E-005	  0.00000E+000	  0.00000E+000
  6.14400E+000	 -2.93306E-004	 -1.99652E-004	  0.00000E+000	  0.00000E+000
  6.55360E+000	 -1.82992E-004	 -1.79931E-004	  0.00000E+000	  0.00000E+000
  7.37280E+000	 -2.49373E-005	 -4.82050E-005	  0.00000E+000	  0.00000E+000
  8.19200E+000	 -7.47241E-005	 -1.04096E-004	  0.00000E+000	  0.00000E+000
  9.01120E+000	  2.10934E-005	  2.20838E-004	  0.00000E+000	  0.00000E+000
  9.83040E+000	 -1.56617E-005	  1.13591E-004	  0.00000E+000	  0.00000E+000
  1.06496E+001	  1.14625E-005	 -2.41407E-004	  0.00000E+000	  0.00000E+000
  1.14688E+001	 -1.39520E-004	 -1.33656E-004	  0.00000E+000	  0.00000E+000
  1.22880E+001	  2.45068E-005	 -5.49774E-006	  0.00000E+000	  0.00000E+000
  1.31072E+001	 -5.59110E-005	 -2.15180E-005	  0.00000E+000	  0.00000E+000
  1.47456E+001	 -5.61983E-005	 -9.40377E-005	  0.00000E+000	  0.00000E+000
  1.63840E+001	 -1.07102E-005	  4.78837E-005	  0.00000E+000	  0.00000E+000
  1.80224E+001	  3.29826E-005	  1.19066E-004	  0.00000E+000	  0.00000E+000
  1.96608E+001	 -3.48433E-006	  1.57772E-004	  0.00000E+000	  0.00000E+000
  2.12992E+001	  8.36411E-005	  1.02431E-004	  0.00000E+000	  0.00000E+000
  2.29376E+001	 -8.96227E-005	 -8.91098E-005	  0.00000E+000	  0.00000E+000
  2.45760E+001	 -5.56220E-005	 -1.54243E-004	  0.00000E+000	  0.00000E+000
  2.62144E+001	 -5.16150E-005	 -1.02823E-005	  0.00000E+000	  0.00000E+000
  2.94912E+001	 -2.50661E-005	  1.01005E-004	  0.00000E+000	  0.00000E+000
  3.27680E+001	 -4.21047E-006	  6.11703E-005	  0.00000E+000	  0.00000E+000
  3.60448E+001	 -5.00296E-005	 -4.82355E-005	  0.00000E+000	  0.00000E+000
  3.93216E+001	 -7.24967E-005	 -8.59282E-005	  0.00000E+000	  0.00000E+000
  4.25984E+001	 -2.38821E-005	 -1.48776E-005	  0.00000E+000	  0.00000E+000
  4.58752E+001	 -7.42891E-005	 -8.30483E-005	  0.00000E+000	  0.00000E+000
  4.91520E+001	  9.37702E-006	 -1.22920E-005	  0.00000E+000	  0.00000E+000
  5.24288E+001	  1.83970E-005	  2.97164E-005	  0.00000E+000	  0.00000E+000
  5.89824E+001	 -1.18263E-005	 -4.16387E-005	  0.00000E+000	  0.00000E+000
  6.55360E+001	 -1.72039E-005	  9.72097E-006	  0.00000E+000	  0.00000E+000
  7.20896E+001	  2.35660E-006	 -7.84194E-005	  0.00000E+000	  0.00000E+000
  7.86432E+001	  7.12352E-006	  3.46734E-005	  0.00000E+000	  0.00000E+000
  8.51968E+001	 -8.38714E-006	  4.29738E-005	  0.00000E+000	  0.00000E+000
  9.17504E+001	 -8.85265E-005	 -1.51126E-004	  0.00000E+000	  0.00000E+000
  9.83040E+001	 -1.54913E-005	  5.63359E-005	  0.00000E+000	  0.00000E+000
  1.04858E+002	 -4.00672E-006	 -6.53733E-007	  0.00000E+000	  0.00000E+000
  1.17965E+002	  1.72078E-005	  3.22709E-005	  0.00000E+000	  0.00000E+000
  1.31072E+002	 -1.46323E-005	 -6.90556E-005	  0.00000E+000	  0.00000E+000
  1.44179E+002	  3.82634E-005	  4.54174E-005	  0.00000E+000	  0.00000E+000
  1.57286E+002	  3.38913E-005	  9.24038E-006	  0.00000E+000	  0.00000E+000
  1.70394E+002	 -2.04091E-005	 -3.79874E-005	  0.00000E+000	  0.00000E+000
  1.83501E+002	 -3.25197E-005	 -5.52699E-005	  0.00000E+000	  0.00000E+000
  1.96608E+002	  3.08779E-005	  3.51647E-005	  0.00000E+000	  0.00000E+000
  2.09715E+002	  6.57407E-006	  1.69010E-005	  0.00000E+000	  0.00000E+000
  2.35930E+002	  2.51183E-007	 -1.33512E-005	  0.00000E+000	  0.00000E+000
  2.62144E+002	 -1.43489E-005	 -1.55915E-005	  0.00000E+000	  0.00000E+000
  2.88358E+002	 -1.61289E-005	 -1.94209E-005	  0.00000E+000	  0.00000E+000
  3.14573E+002	  8.13494E-006	  2.18534E-008	  0.00000E+000	  0.00000E+000
  3.40787E+002	 -7.98239E-006	 -2.05511E-005	  0.00000E+000	  0.00000E+000
  3.67002E+002	 -6.40418E-007	 -1.11210E-005	  0.00000E+000	  0.00000E+000
  3.93216E+002	  2.71929E-005	  1.70568E-005	  0.00000E+000	  0.00000E+000
  4.19430E+002	 -6.62143E-006	 -3.17901E-006	  0.00000E+000	  0.00000E+000
  4.71859E+002	 -3.94588E-006	 -1.38674E-006	  0.00000E+000	  0.00000E+000
  5.24288E+002	 -1.92398E-005	 -1.80562E-005	  0.00000E+000	  0.00000E+000
  5.76717E+002	  1.26812E-005	  4.04462E-006	  0.00000E+000	  0.00000E+000
  6.29146E+002	 -1.22718E-008	  8.34343E-006	  0.00000E+000	  0.00000E+000
  6.81574E+002	  1.73986E-005	  2.66895E-005	  0.00000E+000	  0.00000E+000
  7.34003E+002	  5.57671E-006	 -2.24125E-005	  0.00000E+000	  0.00000E+000
  7.86432E+002	 -1.68613E-005	 -1.05655E-005	  0.00000E+000	  0.00000E+000
  8.38861E+002	 -7.44879E-006	  5.91735E-006	  0.00000E+000	  0.00000E+000
  9.43718E+002	 -4.69375E-006	 -1.78530E-005	  0.00000E+000	  0.00000E+000
  1.04858E+003	  3.25262E-006	  1.42656E-005	  0.00000E+000	  0.00000E+000
  1.15343E+003	 -1.46334E-006	 -2.21465E-005	  0.00000E+000	  0.00000E+000
  1.25829E+003	  1.88544E-005	  2.70744E-005	  0.00000E+000	  0.00000E+000
  1.36315E+003	 -1.53143E-005	 -1.30044E-005	  0.00000E+000	  0.00000E+000
  1.46801E+003	  1.40945E-005	  1.32161E-005	  0.00000E+000	  0.00000E+000
  1.57286E+003	 -1.44136E-006	 -8.32447E-006	  0.00000E+000	  0.00000E+000
  1.67772E+003	  1.13730E-005	  1.78556E-006	  0.00000E+000	  0.00000E+000
  1.88744E+003	  2.19653E-006	  4.02571E-006	  0.00000E+000	  0.00000E+000
  2.09715E+003	  2.63167E-006	  4.75783E-007	  0.00000E+000	  0.00000E+000
  2.30687E+003	  3.84647E-006	  3.24864E-006	  0.00000E+000	  0.00000E+000
  2.51658E+003	  9.03534E-006	  6.62286E-006	  0.00000E+000	  0.00000E+000
  2.72630E+003	 -2.04071E-006	  1.11508E-005	  0.00000E+000	  0.00000E+000
  2.93601E+003	 -1.44092E-005	 -2.15007E-005	  0.00000E+000	  0.00000E+000
  3.14573E+003	  3.62531E-006	  1.62439E-007	  0.00000E+000	  0.00000E+000
  3.35544E+003	 -4.04324E-006	  1.56524E-006	  0.00000E+000	  0.00000E+000
  3.77487E+003	 -5.38533E-006	 -1.08383E-005	  0.00000E+000	  0.00000E+000
  4.19430E+003	  8.91928E-007	  2.05963E-006	  0.00000E+000	  0.00000E+000
  4.61373E+003	  4.06723E-006	  2.95874E-006	  0.00000E+000	  0.00000E+000
  5.03317E+003	 -3.87922E-006	 -3.57402E-006	  0.00000E+000	  0.00000E+000
  5.45260E+003	  2.87855E-006	  1.59495E-006	  0.00000E+000	  0.00000E+000
  5.87203E+003	 -2.49254E-006	 -1.15738E-006	  0.00000E+000	  0.00000E+000
  6.29146E+003	  8.98916E-007	 -3.46992E-006	  0.00000E+000	  0.00000E+000
  6.71089E+003	  2.74788E-006	  2.79216E-006	  0.00000E+000	  0.00000E+000
  7.54975E+003	  3.51998E-006	  5.32162E-006	  0.00000E+000	  0.00000E+000
  8.38861E+003	  1.09566E-006	  2.39617E-006	  0.00000E+000	  0.00000E+000
  9.22747E+003	 -2.13425E-006	  5.48564E-007	  0.00000E+000	  0.00000E+000
  1.00663E+004	  5.76971E-007	  1.31994E-006	  0.00000E+000	  0.00000E+000
  1.09052E+004	  1.37558E-006	 -2.77322E-006	  0.00000E+000	  0.00000E+000
  1.17441E+004	 -8.26690E-007	 -1.39849E-006	  0.00000E+000	  0.00000E+000
  1.25829E+004	 -2.32819E-006	 -3.85334E-006	  0.00000E+000	  0.00000E+000

"Count Rate"
       0.11719	      51.03712	      44.71718	       0.00000	       0.00000
       0.23438	      50.74714	      45.17774	       0.00000	       0.00000
       0.35156	      50.48274	      43.42931	       0.00000	       0.00000
       0.46875	      49.97100	      44.25662	       0.00000	       0.00000
       0.58594	      49.28016	      43.94958	       0.00000	       0.00000
       0.70313	      50.94330	      45.86006	       0.00000	       0.00000
       0.82031	      51.12241	      44.80247	       0.00000	       0.00000
       0.93750	      50.59361	      43.66812	       0.00000	       0.00000
       1.05469	      51.11388	      43.94105	       0.00000	       0.00000
       1.17188	      50.63626	      45.03275	       0.00000	       0.00000
       1.28906	      50.57656	      44.61483	       0.00000	       0.00000
       1.40625	      49.47632	      44.00928	       0.00000	       0.00000
       1.52344	      49.98806	      44.08604	       0.00000	       0.00000
       1.64063	      51.97530	      43.65959	       0.00000	       0.00000
       1.75781	      49.60426	      45.14363	       0.00000	       0.00000
       1.87500	      51.31004	      43.88987	       0.00000	       0.00000
       1.99219	      49.98806	      43.65959	       0.00000	       0.00000
       2.10938	      51.54033	      44.41014	       0.00000	       0.00000
       2.22656	      51.76208	      43.75341	       0.00000	       0.00000
       2.34375	      51.19064	      43.71930	       0.00000	       0.00000
       2.46094	      51.92413	      43.26726	       0.00000	       0.00000
       2.57813	      50.46568	      45.06687	       0.00000	       0.00000
       2.69531	      50.83242	      44.15427	       0.00000	       0.00000
       2.81250	      51.10535	      44.20544	       0.00000	       0.00000
       2.92969	      50.27804	      44.58072	       0.00000	       0.00000
       3.04688	      50.95183	      44.23956	       0.00000	       0.00000
       3.16406	      50.52538	      44.72571	       0.00000	       0.00000
       3.28125	      50.50832	      44.65748	       0.00000	       0.00000
       3.39844	      50.82389	      45.49331	       0.00000	       0.00000
       3.51563	      49.84307	      44.17133	       0.00000	       0.00000
       3.63281	      50.99447	      45.48478	       0.00000	       0.00000
       3.75000	      52.36763	      43.86429	       0.00000	       0.00000
       3.86719	      50.84095	      44.46131	       0.00000	       0.00000
       3.98438	      50.34628	      43.51460	       0.00000	       0.00000
       4.10156	      50.26952	      44.25662	       0.00000	       0.00000
       4.21875	      51.45504	      44.52954	       0.00000	       0.00000
       4.33594	      50.22687	      44.00075	       0.00000	       0.00000
       4.45313	      49.60426	      44.48690	       0.00000	       0.00000
       4.57031	      51.28446	      43.95811	       0.00000	       0.00000
       4.68750	      50.83242	      43.37814	       0.00000	       0.00000
       4.80469	      50.73008	      44.17133	       0.00000	       0.00000
       4.92188	      51.17358	      43.26726	       0.00000	       0.00000
       5.03906	      51.25887	      45.45920	       0.00000	       0.00000
       5.15625	      50.63626	      45.09245	       0.00000	       0.00000
       5.27344	      51.36122	      43.84723	       0.00000	       0.00000
       5.39063	      50.44862	      43.81311	       0.00000	       0.00000
       5.50781	      50.51685	      43.30138	       0.00000	       0.00000
       5.62500	      50.61067	      44.16280	       0.00000	       0.00000
       5.74219	      50.41451	      44.81953	       0.00000	       0.00000
       5.85938	      50.55950	      43.24168	       0.00000	       0.00000
       5.97656	      50.71302	      44.32485	       0.00000	       0.00000
       6.09375	      50.01365	      43.59989	       0.00000	       0.00000
       6.21094	      50.16717	      44.83659	       0.00000	       0.00000
       6.32813	      50.26952	      44.26515	       0.00000	       0.00000
       6.44531	      50.52538	      43.72783	       0.00000	       0.00000
       6.56250	      50.23540	      43.70224	       0.00000	       0.00000
       6.67969	      52.08618	      43.18197	       0.00000	       0.00000
       6.79688	      50.54244	      44.13721	       0.00000	       0.00000
       6.91406	      50.48274	      43.83870	       0.00000	       0.00000
       7.03125	      50.12452	      45.08392	       0.00000	       0.00000
       7.14844	      51.31857	      43.79605	       0.00000	       0.00000
       7.26563	      50.67038	      44.75130	       0.00000	       0.00000
       7.38281	      50.74714	      43.83870	       0.00000	       0.00000
       7.50000	      50.26099	      44.93040	       0.00000	       0.00000
       7.61719	      50.38039	      44.67454	       0.00000	       0.00000
       7.73438	      51.79619	      45.06687	       0.00000	       0.00000
       7.85156	      49.91983	      43.18197	       0.00000	       0.00000
       7.96875	      49.84307	      45.28009	       0.00000	       0.00000
       8.08594	      51.04565	      45.21186	       0.00000	       0.00000
       8.20313	      50.84948	      44.29073	       0.00000	       0.00000
       8.32031	      50.15011	      44.71718	       0.00000	       0.00000
       8.43750	      50.32922	      44.54660	       0.00000	       0.00000
       8.55469	      50.83242	      44.75983	       0.00000	       0.00000
       8.67188	      50.21834	      43.42931	       0.00000	       0.00000
       8.78906	      50.64479	      43.65959	       0.00000	       0.00000
       8.90625	      51.71090	      43.68518	       0.00000	       0.00000
       9.02344	      50.15011	      44.16280	       0.00000	       0.00000
       9.14063	      51.26740	      43.77047	       0.00000	       0.00000
       9.25781	      50.93477	      45.35685	       0.00000	       0.00000
       9.37500	      50.78125	      44.46131	       0.00000	       0.00000
       9.49219	      49.98806	      43.67665	       0.00000	       0.00000
       9.60938	      50.55950	      41.86852	       0.00000	       0.00000
       9.72656	      51.77914	      45.08392	       0.00000	       0.00000
       9.84375	      50.85801	      45.07540	       0.00000	       0.00000
       9.96094	      51.35269	      44.06898	       0.00000	       0.00000
      10.07813	      50.93477	      42.92611	       0.00000	       0.00000
      10.19531	      49.20340	      44.62336	       0.00000	       0.00000
      10.31250	      51.34416	      42.26938	       0.00000	       0.00000
      10.42969	      51.46357	      45.13510	       0.00000	       0.00000
      10.54688	      51.78766	      43.82164	       0.00000	       0.00000
      10.66406	      50.44009	      44.35897	       0.00000	       0.00000
      10.78125	      50.17570	      45.30568	       0.00000	       0.00000
      10.89844	      51.80472	      43.11374	       0.00000	       0.00000
      11.01563	      50.51685	      44.48690	       0.00000	       0.00000
      11.13281	      49.92836	      45.17774	       0.00000	       0.00000
      11.25000	      50.30363	      43.96664	       0.00000	       0.00000
      11.36719	      50.96889	      44.70012	       0.00000	       0.00000
      11.48438	      51.05418	      44.74277	       0.00000	       0.00000
      11.60156	      51.43798	      44.31632	       0.00000	       0.00000
      11.71875	      51.65120	      44.47837	       0.00000	       0.00000
      11.83594	      49.21193	      43.75341	       0.00000	       0.00000
      11.95313	      51.34416	      44.29926	       0.00000	       0.00000
      12.07031	      51.35269	      44.10310	       0.00000	       0.00000
      12.18750	      50.86654	      44.31632	       0.00000	       0.00000
      12.30469	      51.11388	      45.04981	       0.00000	       0.00000
      12.42188	      50.57656	      44.62336	       0.00000	       0.00000
      12.53906	      50.84095	      43.57430	       0.00000	       0.00000
      12.65625	      51.18211	      43.36961	       0.00000	       0.00000
      12.77344	      51.12241	      44.10310	       0.00000	       0.00000
      12.89063	      50.89213	      44.07751	       0.00000	       0.00000
      13.00781	      51.65973	      42.90905	       0.00000	       0.00000
      13.12500	      51.11388	      43.72783	       0.00000	       0.00000
      13.24219	      50.61067	      43.94958	       0.00000	       0.00000
      13.35938	      49.64690	      44.14574	       0.00000	       0.00000
      13.47656	      50.58508	      44.07751	       0.00000	       0.00000
      13.59375	      50.78125	      44.04340	       0.00000	       0.00000
      13.71094	      51.01153	      44.03487	       0.00000	       0.00000
      13.82813	      50.91771	      43.90693	       0.00000	       0.00000
      13.94531	      50.77272	      44.27368	       0.00000	       0.00000
      14.06250	      51.27593	      45.66389	       0.00000	       0.00000
      14.17969	      49.41662	      44.07751	       0.00000	       0.00000
      14.29688	      51.48915	      44.89629	       0.00000	       0.00000
      14.41406	      51.02859	      44.00075	       0.00000	       0.00000
      14.53125	      50.71302	      44.09457	       0.00000	       0.00000
      14.64844	      49.52750	      43.83017	       0.00000	       0.00000
      14.76563	      51.30151	      44.36749	       0.00000	       0.00000
      14.88281	      51.19064	      43.04551	       0.00000	       0.00000
      15.00000	      49.94542	      44.70865	       0.00000	       0.00000
      15.11719	      49.72366	      44.64895	       0.00000	       0.00000
      15.23438	      51.31857	      44.66601	       0.00000	       0.00000
      15.35156	      50.30363	      43.48901	       0.00000	       0.00000
      15.46875	      51.48915	      43.10521	       0.00000	       0.00000
      15.58594	      50.29510	      44.32485	       0.00000	       0.00000
      15.70313	      51.64267	      42.68729	       0.00000	       0.00000
      15.82031	      49.36545	      44.35897	       0.00000	       0.00000
      15.93750	      50.34628	      44.87923	       0.00000	       0.00000
      16.05469	      50.50832	      45.06687	       0.00000	       0.00000
      16.17188	      50.69596	      44.27368	       0.00000	       0.00000
      16.28906	      50.62773	      44.80247	       0.00000	       0.00000
      16.40625	      50.15864	      44.25662	       0.00000	       0.00000
      16.52344	      51.16505	      45.17774	       0.00000	       0.00000
      16.64063	      50.18422	      44.10310	       0.00000	       0.00000
      16.75781	      51.27593	      45.06687	       0.00000	       0.00000
      16.87500	      49.80895	      43.84723	       0.00000	       0.00000
      16.99219	      51.35269	      43.67665	       0.00000	       0.00000
      17.10938	      50.89213	      44.44426	       0.00000	       0.00000
      17.22656	      50.67890	      44.29073	       0.00000	       0.00000
      17.34375	      49.34839	      43.29285	       0.00000	       0.00000
      17.46094	      51.01153	      44.33338	       0.00000	       0.00000
      17.57813	      50.20981	      44.33338	       0.00000	       0.00000
      17.69531	      50.04776	      44.88776	       0.00000	       0.00000
      17.81250	      51.24181	      43.54872	       0.00000	       0.00000
      17.92969	      50.63626	      44.35897	       0.00000	       0.00000
      18.04688	      49.64690	      44.88776	       0.00000	       0.00000
      18.16406	      50.84095	      43.04551	       0.00000	       0.00000
      18.28125	      50.65332	      46.02211	       0.00000	       0.00000
      18.39844	      50.89213	      44.22250	       0.00000	       0.00000
      18.51563	      49.81748	      44.38455	       0.00000	       0.00000
      18.63281	      50.56803	      43.50607	       0.00000	       0.00000
      18.75000	      49.98806	      44.62336	       0.00000	       0.00000
      18.86719	      51.19917	      44.46131	       0.00000	       0.00000
      18.98438	      50.72155	      44.33338	       0.00000	       0.00000
      19.10156	      51.67679	      44.64895	       0.00000	       0.00000
      19.21875	      50.90918	      43.93252	       0.00000	       0.00000
      19.33594	      49.80895	      44.18839	       0.00000	       0.00000
      19.45313	      49.63837	      44.76835	       0.00000	       0.00000
      19.57031	      51.78766	      44.53807	       0.00000	       0.00000
      19.68750	      50.03923	      44.63189	       0.00000	       0.00000
      19.80469	      49.79189	      43.28432	       0.00000	       0.00000
      19.92188	      50.59361	      44.07751	       0.00000	       0.00000
      20.03906	      50.96036	      45.13510	       0.00000	       0.00000
      20.15625	      50.36333	      43.94105	       0.00000	       0.00000
      20.27344	      51.83884	      44.66601	       0.00000	       0.00000
      20.39063	      52.02647	      44.82806	       0.00000	       0.00000
      20.50781	      51.17358	      43.51460	       0.00000	       0.00000
      20.62500	      50.12452	      44.96452	       0.00000	       0.00000
      20.74219	      49.81748	      44.12016	       0.00000	       0.00000
      20.85938	      50.92624	      44.82806	       0.00000	       0.00000
      20.97656	      50.89213	      45.42508	       0.00000	       0.00000
      21.09375	      51.08829	      44.98158	       0.00000	       0.00000
      21.21094	      50.28657	      45.10951	       0.00000	       0.00000
      21.32813	      51.17358	      43.37814	       0.00000	       0.00000
      21.44531	      50.51685	      45.38244	       0.00000	       0.00000
      21.56250	      50.25246	      44.14574	       0.00000	       0.00000
      21.67969	      50.72155	      44.13721	       0.00000	       0.00000
      21.79688	      51.11388	      44.97305	       0.00000	       0.00000
      21.91406	      50.99447	      44.14574	       0.00000	       0.00000
      22.03125	      50.54244	      44.75983	       0.00000	       0.00000
      22.14844	      51.06271	      44.43573	       0.00000	       0.00000
      22.26563	      51.04565	      43.97516	       0.00000	       0.00000
      22.38281	      51.47209	      44.64895	       0.00000	       0.00000
      22.50000	      51.71090	      44.40161	       0.00000	       0.00000
      22.61719	      50.80684	      44.48690	       0.00000	       0.00000
      22.73438	      51.67679	      43.82164	       0.00000	       0.00000
      22.85156	      51.15652	      43.59136	       0.00000	       0.00000
      22.96875	      50.81536	      45.34832	       0.00000	       0.00000
      23.08594	      50.97742	      44.57219	       0.00000	       0.00000
      23.20313	      51.58297	      43.96664	       0.00000	       0.00000
      23.32031	      51.24181	      43.48048	       0.00000	       0.00000
      23.43750	      51.01153	      44.77688	       0.00000	       0.00000
      23.55469	      50.45715	      43.33549	       0.00000	       0.00000
      23.67188	      51.25887	      43.40372	       0.00000	       0.00000
      23.78906	      50.45715	      44.17133	       0.00000	       0.00000
      23.90625	      49.95395	      45.99652	       0.00000	       0.00000
      24.02344	      50.34628	      44.14574	       0.00000	       0.00000
      24.14063	      50.66185	      44.29926	       0.00000	       0.00000
      24.25781	      51.77061	      43.71930	       0.00000	       0.00000
      24.37500	      49.91130	      45.16069	       0.00000	       0.00000
      24.49219	      48.88783	      45.16069	       0.00000	       0.00000
      24.60938	      50.18422	      44.35897	       0.00000	       0.00000
      24.72656	      51.07123	      44.57219	       0.00000	       0.00000
      24.84375	      49.30574	      44.46131	       0.00000	       0.00000
      24.96094	      51.25034	      43.94958	       0.00000	       0.00000
      25.07813	      50.76419	      44.93893	       0.00000	       0.00000
      25.19531	      51.14799	      44.92188	       0.00000	       0.00000
      25.31250	      49.96247	      44.97305	       0.00000	       0.00000
      25.42969	      49.47632	      44.16280	       0.00000	       0.00000
      25.54688	      51.47209	      43.74488	       0.00000	       0.00000
      25.66406	      48.71725	      44.05193	       0.00000	       0.00000
      25.78125	      52.21411	      44.51249	       0.00000	       0.00000
      25.89844	      50.09041	      45.33979	       0.00000	       0.00000
      26.01563	      50.90918	      43.75341	       0.00000	       0.00000
      26.13281	      51.53180	      43.94105	       0.00000	       0.00000
      26.25000	      51.13947	      43.39520	       0.00000	       0.00000
      26.36719	      50.64479	      44.08604	       0.00000	       0.00000
      26.48438	      50.73008	      44.87923	       0.00000	       0.00000
      26.60156	      51.25034	      44.06045	       0.00000	       0.00000
      26.71875	      50.17570	      44.12868	       0.00000	       0.00000
      26.83594	      50.92624	      44.02634	       0.00000	       0.00000
      26.95313	      51.76208	      44.01781	       0.00000	       0.00000
      27.07031	      50.49127	      43.64254	       0.00000	       0.00000
      27.18750	      50.78978	      42.56789	       0.00000	       0.00000
      27.30469	      49.41662	      44.64895	       0.00000	       0.00000
      27.42188	      50.15864	      43.36961	       0.00000	       0.00000
      27.53906	      51.64267	      43.65959	       0.00000	       0.00000
      27.65625	      51.13947	      43.63401	       0.00000	       0.00000
      27.77344	      50.02217	      44.46131	       0.00000	       0.00000
      27.89063	      50.73861	      43.99222	       0.00000	       0.00000
      28.00781	      50.20981	      42.77258	       0.00000	       0.00000
      28.12500	      50.25246	      43.96664	       0.00000	       0.00000
      28.24219	      48.87077	      45.43361	       0.00000	       0.00000
      28.35938	      51.85590	      44.18839	       0.00000	       0.00000
      28.47656	      51.70237	      43.23315	       0.00000	       0.00000
      28.59375	      50.65332	      44.77688	       0.00000	       0.00000
      28.71094	      51.40386	      44.06045	       0.00000	       0.00000
      28.82813	      50.85801	      44.00928	       0.00000	       0.00000
      28.94531	      50.94330	      44.22250	       0.00000	       0.00000
      29.06250	      50.88360	      44.30779	       0.00000	       0.00000
      29.17969	      51.71090	      43.92399	       0.00000	       0.00000
      29.29688	      50.65332	      43.95811	       0.00000	       0.00000
      29.41406	      50.90918	      44.49543	       0.00000	       0.00000
      29.53125	      50.76419	      42.79817	       0.00000	       0.00000
      29.64844	      50.71302	      43.64254	       0.00000	       0.00000
      29.76563	      52.08618	      43.86429	       0.00000	       0.00000

Monitor Diode	1762678.17

"Cumulant 1.Order"
FluctuationFreq. [1/ms]	 0.0000E+000
DiffCoefficient [µm²/s]	 0.0000E+000
Hydrodyn. Radius [nm]	 0.0000E+000

"Cumulant 2.Order"
FluctuationFreq. [1/ms]	 0.0000E+000
DiffCoefficient [µm²/s]	 0.0000E+000
Hydrodyn. Radius [nm]	 0.0000E+000
Expansion Parameter µ2	 0.0000E+000

"Cumulant 3.Order"
FluctuationFreq. [1/ms]	 0.0000E+000
DiffCoefficient [µm²/s]	 0.0000E+000
Hydrodyn. Radius [nm]	 0.0000E+000
Expansion Parameter µ2	 0.0000E+000
Expansion Parameter µ3	 0.0000E+000

