ALV-7004 or ALV-7004/FAST
Date :	"13-Nov-18"
Time :	"10:46:19"
Samplename : 	""
SampMemo(0) : 	""
SampMemo(1) : 	""
SampMemo(2) : 	""
SampMemo(3) : 	""
SampMemo(4) : 	""
SampMemo(5) : 	""
SampMemo(6) : 	""
SampMemo(7) : 	""
SampMemo(8) : 	""
SampMemo(9) : 	""
Temperature [K] :	     298.57168
Viscosity [cp]  :	       0.89000
Refractive Index:	       1.33200
Wavelength [nm] :	     632.80000
Angle [°]       :	      55.00000
Duration [s]    :	        30
FloatDur [ms]   :	        30023
Stop TP [ms]   :	   1480727
Runs            :	         1
Mode            :	"C-CH0/1a1/0 "
MeanCR0 [kHz]   :	      39.43077
MeanCR1 [kHz]   :	      34.72555
MeanCR2 [kHz]   :	       0.00000
MeanCR3 [kHz]   :	       0.00000

"Correlation"
  3.12500E-006	  3.25607E-002	 -6.48507E-002	  0.00000E+000	  0.00000E+000
  6.25000E-006	  1.69749E-002	  1.68937E-001	  0.00000E+000	  0.00000E+000
  9.37500E-006	  1.30784E-002	  9.88004E-002	  0.00000E+000	  0.00000E+000
  1.25000E-005	  6.76288E-002	  1.84522E-001	  0.00000E+000	  0.00000E+000
  1.56250E-005	  1.14386E-001	  5.98359E-002	  0.00000E+000	  0.00000E+000
  1.87500E-005	  4.03536E-002	  5.98359E-002	  0.00000E+000	  0.00000E+000
  2.18750E-005	  5.59394E-002	 -2.50742E-003	  0.00000E+000	  0.00000E+000
  2.50000E-005	 -4.14720E-002	  5.20430E-002	  0.00000E+000	  0.00000E+000
  2.81250E-005	  5.20430E-002	  1.84522E-001	  0.00000E+000	  0.00000E+000
  3.12500E-005	  2.47678E-002	  1.53351E-001	  0.00000E+000	  0.00000E+000
  3.43750E-005	 -4.53684E-002	  2.08713E-002	  0.00000E+000	  0.00000E+000
  3.75000E-005	 -2.58862E-002	 -5.70578E-002	  0.00000E+000	  0.00000E+000
  4.06250E-005	  9.10075E-002	  6.76288E-002	  0.00000E+000	  0.00000E+000
  4.37500E-005	 -6.87472E-002	 -9.60224E-002	  0.00000E+000	  0.00000E+000
  4.68750E-005	  1.10490E-001	  1.37765E-001	  0.00000E+000	  0.00000E+000
  5.00000E-005	  5.20430E-002	  9.10075E-002	  0.00000E+000	  0.00000E+000
  5.62500E-005	  2.08713E-002	  2.08713E-002	  0.00000E+000	  0.00000E+000
  6.25000E-005	  3.33726E-003	  4.81465E-002	  0.00000E+000	  0.00000E+000
  6.87500E-005	  1.16334E-001	  5.20430E-002	  0.00000E+000	  0.00000E+000
  7.50000E-005	  5.28549E-003	  2.86642E-002	  0.00000E+000	  0.00000E+000
  8.12500E-005	 -5.31613E-002	 -2.19897E-002	  0.00000E+000	  0.00000E+000
  8.75000E-005	 -2.58862E-002	 -8.04365E-002	  0.00000E+000	  0.00000E+000
  9.37500E-005	 -4.14720E-002	 -5.31613E-002	  0.00000E+000	  0.00000E+000
  1.00000E-004	  1.98972E-002	  2.47678E-002	  0.00000E+000	  0.00000E+000
  1.12500E-004	 -9.32622E-003	 -6.40388E-003	  0.00000E+000	  0.00000E+000
  1.25000E-004	  3.64571E-002	 -8.35211E-003	  0.00000E+000	  0.00000E+000
  1.37500E-004	  5.10688E-002	  4.03536E-002	  0.00000E+000	  0.00000E+000
  1.50000E-004	 -3.46532E-002	  5.98359E-002	  0.00000E+000	  0.00000E+000
  1.62500E-004	 -5.41355E-002	 -4.73167E-002	  0.00000E+000	  0.00000E+000
  1.75000E-004	 -2.97826E-002	 -7.65401E-002	  0.00000E+000	  0.00000E+000
  1.87500E-004	 -2.29638E-002	 -6.67989E-002	  0.00000E+000	  0.00000E+000
  2.00000E-004	 -2.63732E-002	 -5.21872E-002	  0.00000E+000	  0.00000E+000
  2.25000E-004	 -2.05285E-002	 -1.51709E-002	  0.00000E+000	  0.00000E+000
  2.50000E-004	 -2.00415E-002	 -9.32623E-003	  0.00000E+000	  0.00000E+000
  2.75000E-004	 -6.04672E-002	 -5.60837E-002	  0.00000E+000	  0.00000E+000
  3.00000E-004	 -1.46839E-002	 -3.85496E-002	  0.00000E+000	  0.00000E+000
  3.25000E-004	  2.08713E-002	  3.84053E-002	  0.00000E+000	  0.00000E+000
  3.50000E-004	  7.23371E-003	  3.93795E-002	  0.00000E+000	  0.00000E+000
  3.75000E-004	  3.93795E-002	  5.39912E-002	  0.00000E+000	  0.00000E+000
  4.00000E-004	  2.54983E-002	  3.98665E-002	  0.00000E+000	  0.00000E+000
  4.50000E-004	 -4.69920E-003	 -1.12745E-002	  0.00000E+000	  0.00000E+000
  5.00000E-004	  1.40525E-002	  1.94101E-002	  0.00000E+000	  0.00000E+000
  5.50000E-004	  4.14895E-004	 -2.50745E-003	  0.00000E+000	  0.00000E+000
  6.00000E-004	 -1.39533E-002	 -3.48156E-003	  0.00000E+000	  0.00000E+000
  6.50000E-004	  1.18607E-002	 -6.89096E-003	  0.00000E+000	  0.00000E+000
  7.00000E-004	  1.74619E-002	  5.28546E-003	  0.00000E+000	  0.00000E+000
  7.50000E-004	  1.91666E-002	  2.72030E-002	  0.00000E+000	  0.00000E+000
  8.00000E-004	 -4.82099E-003	  8.69484E-003	  0.00000E+000	  0.00000E+000
  9.00000E-004	  2.91512E-002	  2.30630E-002	  0.00000E+000	  0.00000E+000
  1.00000E-003	 -9.24538E-004	 -2.00415E-002	  0.00000E+000	  0.00000E+000
  1.10000E-003	 -8.47392E-003	 -1.66321E-002	  0.00000E+000	  0.00000E+000
  1.20000E-003	  1.13736E-002	  2.11148E-002	  0.00000E+000	  0.00000E+000
  1.30000E-003	 -2.18680E-002	 -6.89099E-003	  0.00000E+000	  0.00000E+000
  1.40000E-003	  1.02778E-002	  2.11957E-003	  0.00000E+000	  0.00000E+000
  1.50000E-003	 -3.23806E-003	 -6.40393E-003	  0.00000E+000	  0.00000E+000
  1.60000E-003	 -9.75250E-003	 -1.91892E-002	  0.00000E+000	  0.00000E+000
  1.80000E-003	  1.05821E-002	  1.00342E-002	  0.00000E+000	  0.00000E+000
  2.00000E-003	  3.39804E-003	 -6.89104E-003	  0.00000E+000	  0.00000E+000
  2.20000E-003	  1.51069E-003	  2.72833E-003	  0.00000E+000	  0.00000E+000
  2.40000E-003	  1.63246E-003	 -4.21223E-003	  0.00000E+000	  0.00000E+000
  2.60000E-003	  1.47830E-002	  3.28041E-002	  0.00000E+000	  0.00000E+000
  2.80000E-003	 -1.08484E-002	 -4.09046E-003	  0.00000E+000	  0.00000E+000
  3.00000E-003	  1.26716E-003	 -2.38576E-003	  0.00000E+000	  0.00000E+000
  3.20000E-003	 -1.71617E-003	  3.53826E-004	  0.00000E+000	  0.00000E+000
  3.60000E-003	 -7.68220E-003	 -1.55356E-002	  0.00000E+000	  0.00000E+000
  4.00000E-003	 -8.41278E-003	 -1.57182E-002	  0.00000E+000	  0.00000E+000
  4.40000E-003	  4.76820E-003	  5.37318E-004	  0.00000E+000	  0.00000E+000
  4.80000E-003	 -4.79029E-003	 -6.15972E-003	  0.00000E+000	  0.00000E+000
  5.20000E-003	  1.08869E-002	  1.28355E-002	  0.00000E+000	  0.00000E+000
  5.60000E-003	 -9.17380E-003	 -1.04824E-002	  0.00000E+000	  0.00000E+000
  6.00000E-003	  1.16783E-002	  4.06848E-003	  0.00000E+000	  0.00000E+000
  6.40000E-003	 -9.20446E-003	 -1.77580E-002	  0.00000E+000	  0.00000E+000
  7.20000E-003	  7.80210E-004	  2.63135E-004	  0.00000E+000	  0.00000E+000
  8.00000E-003	  1.00852E-003	  2.75930E-003	  0.00000E+000	  0.00000E+000
  8.80000E-003	  2.98719E-003	  8.02561E-003	  0.00000E+000	  0.00000E+000
  9.60000E-003	 -3.13147E-003	 -4.69876E-003	  0.00000E+000	  0.00000E+000
  1.04000E-002	 -3.61325E-004	  9.63898E-003	  0.00000E+000	  0.00000E+000
  1.12000E-002	 -2.39568E-004	 -6.55566E-003	  0.00000E+000	  0.00000E+000
  1.20000E-002	 -3.35977E-003	  1.20681E-003	  0.00000E+000	  0.00000E+000
  1.28000E-002	 -3.11577E-003	 -1.85199E-003	  0.00000E+000	  0.00000E+000
  1.44000E-002	  8.26347E-004	 -1.65412E-003	  0.00000E+000	  0.00000E+000
  1.60000E-002	 -3.52672E-003	  4.16013E-003	  0.00000E+000	  0.00000E+000
  1.76000E-002	  8.87227E-004	 -5.58102E-003	  0.00000E+000	  0.00000E+000
  1.92000E-002	 -3.89963E-003	 -3.64801E-003	  0.00000E+000	  0.00000E+000
  2.08000E-002	 -1.01533E-003	  2.62285E-003	  0.00000E+000	  0.00000E+000
  2.24000E-002	  2.78980E-003	  3.56653E-003	  0.00000E+000	  0.00000E+000
  2.40000E-002	 -8.40300E-004	 -1.62506E-004	  0.00000E+000	  0.00000E+000
  2.56000E-002	  2.07623E-003	  3.76535E-003	  0.00000E+000	  0.00000E+000
  2.88000E-002	  5.90876E-005	 -1.34960E-003	  0.00000E+000	  0.00000E+000
  3.20000E-002	  3.36956E-003	  5.55291E-003	  0.00000E+000	  0.00000E+000
  3.52000E-002	 -4.12753E-004	  2.23484E-003	  0.00000E+000	  0.00000E+000
  3.84000E-002	 -9.64976E-004	 -9.00596E-004	  0.00000E+000	  0.00000E+000
  4.16000E-002	 -2.43376E-003	 -3.54897E-003	  0.00000E+000	  0.00000E+000
  4.48000E-002	  2.07914E-003	 -2.84164E-004	  0.00000E+000	  0.00000E+000
  4.80000E-002	  2.07195E-003	  4.97538E-003	  0.00000E+000	  0.00000E+000
  5.12000E-002	 -1.71042E-003	 -1.34232E-003	  0.00000E+000	  0.00000E+000
  5.76000E-002	  7.30159E-004	  8.48599E-004	  0.00000E+000	  0.00000E+000
  6.40000E-002	  3.55411E-004	 -1.50002E-003	  0.00000E+000	  0.00000E+000
  7.04000E-002	  3.28293E-004	  1.09509E-003	  0.00000E+000	  0.00000E+000
  7.68000E-002	 -1.15006E-004	  2.39264E-003	  0.00000E+000	  0.00000E+000
  8.32000E-002	 -3.67324E-003	 -3.86766E-003	  0.00000E+000	  0.00000E+000
  8.96000E-002	  2.12912E-003	  9.49645E-004	  0.00000E+000	  0.00000E+000
  9.60000E-002	 -2.27533E-003	 -2.28472E-003	  0.00000E+000	  0.00000E+000
  1.02400E-001	 -5.73901E-004	 -2.03179E-003	  0.00000E+000	  0.00000E+000
  1.15200E-001	  1.96223E-004	  3.49399E-004	  0.00000E+000	  0.00000E+000
  1.28000E-001	  1.31161E-003	  1.67930E-003	  0.00000E+000	  0.00000E+000
  1.40800E-001	  6.04804E-004	 -5.25787E-004	  0.00000E+000	  0.00000E+000
  1.53600E-001	 -9.62069E-004	  3.73922E-004	  0.00000E+000	  0.00000E+000
  1.66400E-001	 -1.79949E-004	 -4.90857E-005	  0.00000E+000	  0.00000E+000
  1.79200E-001	 -6.01851E-004	 -1.34474E-003	  0.00000E+000	  0.00000E+000
  1.92000E-001	 -1.38000E-003	 -1.95737E-003	  0.00000E+000	  0.00000E+000
  2.04800E-001	 -2.72240E-004	  1.17129E-003	  0.00000E+000	  0.00000E+000
  2.30400E-001	 -3.44160E-004	  7.26826E-004	  0.00000E+000	  0.00000E+000
  2.56000E-001	  1.32958E-004	 -1.17818E-004	  0.00000E+000	  0.00000E+000
  2.81600E-001	  3.88437E-004	  9.77226E-004	  0.00000E+000	  0.00000E+000
  3.07200E-001	 -2.66221E-004	 -8.00109E-004	  0.00000E+000	  0.00000E+000
  3.32800E-001	 -2.70605E-004	  5.38154E-004	  0.00000E+000	  0.00000E+000
  3.58400E-001	 -6.11175E-004	 -2.43845E-003	  0.00000E+000	  0.00000E+000
  3.84000E-001	 -1.93003E-003	 -1.56971E-003	  0.00000E+000	  0.00000E+000
  4.09600E-001	 -2.63170E-004	 -7.16742E-004	  0.00000E+000	  0.00000E+000
  4.60800E-001	  4.70489E-004	  8.11910E-004	  0.00000E+000	  0.00000E+000
  5.12000E-001	  1.89095E-004	 -2.94096E-004	  0.00000E+000	  0.00000E+000
  5.63200E-001	  5.04926E-004	  4.50466E-005	  0.00000E+000	  0.00000E+000
  6.14400E-001	 -1.94605E-004	  9.09629E-004	  0.00000E+000	  0.00000E+000
  6.65600E-001	 -3.86506E-005	  6.65988E-004	  0.00000E+000	  0.00000E+000
  7.16800E-001	 -1.02902E-003	 -1.58825E-003	  0.00000E+000	  0.00000E+000
  7.68000E-001	  2.65235E-004	  4.66108E-004	  0.00000E+000	  0.00000E+000
  8.19200E-001	  2.36411E-004	 -5.21360E-004	  0.00000E+000	  0.00000E+000
  9.21600E-001	  7.04915E-004	  6.76045E-004	  0.00000E+000	  0.00000E+000
  1.02400E+000	  2.94592E-004	  5.83834E-004	  0.00000E+000	  0.00000E+000
  1.12640E+000	  4.83728E-004	  5.92464E-004	  0.00000E+000	  0.00000E+000
  1.22880E+000	  1.14960E-004	  3.26081E-004	  0.00000E+000	  0.00000E+000
  1.33120E+000	 -2.95576E-004	 -6.87858E-005	  0.00000E+000	  0.00000E+000
  1.43360E+000	  1.89371E-004	 -1.05796E-004	  0.00000E+000	  0.00000E+000
  1.53600E+000	 -8.49257E-005	 -5.34874E-004	  0.00000E+000	  0.00000E+000
  1.63840E+000	 -1.13140E-004	 -2.79277E-004	  0.00000E+000	  0.00000E+000
  1.84320E+000	  2.93019E-004	  5.59240E-004	  0.00000E+000	  0.00000E+000
  2.04800E+000	  2.31184E-004	 -6.41208E-005	  0.00000E+000	  0.00000E+000
  2.25280E+000	 -2.54168E-004	 -2.38160E-004	  0.00000E+000	  0.00000E+000
  2.45760E+000	 -5.06584E-004	 -7.37087E-004	  0.00000E+000	  0.00000E+000
  2.66240E+000	  4.43770E-005	 -1.52560E-004	  0.00000E+000	  0.00000E+000
  2.86720E+000	 -8.42246E-005	  4.34713E-005	  0.00000E+000	  0.00000E+000
  3.07200E+000	 -8.77679E-005	  1.41361E-004	  0.00000E+000	  0.00000E+000
  3.27680E+000	 -2.71061E-004	 -5.80492E-004	  0.00000E+000	  0.00000E+000
  3.68640E+000	 -2.83893E-005	  2.61498E-006	  0.00000E+000	  0.00000E+000
  4.09600E+000	  7.14962E-005	  3.14398E-004	  0.00000E+000	  0.00000E+000
  4.50560E+000	  6.42803E-005	 -3.62598E-005	  0.00000E+000	  0.00000E+000
  4.91520E+000	  3.57091E-004	  5.00729E-004	  0.00000E+000	  0.00000E+000
  5.32480E+000	 -1.77490E-004	 -3.80732E-004	  0.00000E+000	  0.00000E+000
  5.73440E+000	 -6.73750E-005	 -2.52164E-004	  0.00000E+000	  0.00000E+000
  6.14400E+000	 -1.50037E-004	  1.70912E-005	  0.00000E+000	  0.00000E+000
  6.55360E+000	 -5.02281E-005	  6.77627E-005	  0.00000E+000	  0.00000E+000
  7.37280E+000	  5.34505E-005	 -3.12982E-005	  0.00000E+000	  0.00000E+000
  8.19200E+000	  1.45721E-004	  2.79359E-004	  0.00000E+000	  0.00000E+000
  9.01120E+000	  3.03225E-005	  1.91813E-004	  0.00000E+000	  0.00000E+000
  9.83040E+000	 -9.66392E-005	 -1.53713E-004	  0.00000E+000	  0.00000E+000
  1.06496E+001	 -1.37782E-004	 -9.73861E-005	  0.00000E+000	  0.00000E+000
  1.14688E+001	  6.91805E-005	  6.48751E-007	  0.00000E+000	  0.00000E+000
  1.22880E+001	 -7.30612E-005	 -1.05779E-004	  0.00000E+000	  0.00000E+000
  1.31072E+001	  1.18935E-004	  1.48479E-004	  0.00000E+000	  0.00000E+000
  1.47456E+001	  3.01567E-005	  8.16774E-005	  0.00000E+000	  0.00000E+000
  1.63840E+001	 -6.62255E-005	 -1.61513E-004	  0.00000E+000	  0.00000E+000
  1.80224E+001	 -1.55972E-004	 -2.58313E-006	  0.00000E+000	  0.00000E+000
  1.96608E+001	 -2.62090E-005	  5.46758E-005	  0.00000E+000	  0.00000E+000
  2.12992E+001	  8.16785E-005	 -9.67310E-005	  0.00000E+000	  0.00000E+000
  2.29376E+001	  1.32543E-004	  6.18298E-005	  0.00000E+000	  0.00000E+000
  2.45760E+001	  9.16262E-005	  1.17619E-004	  0.00000E+000	  0.00000E+000
  2.62144E+001	  6.41717E-006	 -5.07482E-005	  0.00000E+000	  0.00000E+000
  2.94912E+001	  3.82204E-005	  9.37098E-005	  0.00000E+000	  0.00000E+000
  3.27680E+001	 -2.66531E-005	 -8.65053E-005	  0.00000E+000	  0.00000E+000
  3.60448E+001	 -6.90147E-005	 -9.36030E-005	  0.00000E+000	  0.00000E+000
  3.93216E+001	 -9.54409E-006	 -7.68317E-005	  0.00000E+000	  0.00000E+000
  4.25984E+001	 -1.38493E-005	 -1.61198E-005	  0.00000E+000	  0.00000E+000
  4.58752E+001	  6.25155E-006	 -3.84122E-005	  0.00000E+000	  0.00000E+000
  4.91520E+001	 -9.99005E-005	 -6.69513E-005	  0.00000E+000	  0.00000E+000
  5.24288E+001	 -1.36353E-005	 -5.55891E-005	  0.00000E+000	  0.00000E+000
  5.89824E+001	 -2.25289E-006	  3.29954E-005	  0.00000E+000	  0.00000E+000
  6.55360E+001	 -1.26522E-005	 -1.05137E-005	  0.00000E+000	  0.00000E+000
  7.20896E+001	 -2.69885E-005	 -1.92762E-005	  0.00000E+000	  0.00000E+000
  7.86432E+001	 -3.61786E-005	 -1.75236E-005	  0.00000E+000	  0.00000E+000
  8.51968E+001	  1.50676E-005	 -1.32225E-006	  0.00000E+000	  0.00000E+000
  9.17504E+001	  2.36819E-005	  8.38411E-005	  0.00000E+000	  0.00000E+000
  9.83040E+001	  1.91354E-006	  6.14188E-005	  0.00000E+000	  0.00000E+000
  1.04858E+002	 -6.75592E-006	  3.56697E-006	  0.00000E+000	  0.00000E+000
  1.17965E+002	  3.72045E-006	  3.81209E-005	  0.00000E+000	  0.00000E+000
  1.31072E+002	 -1.13345E-005	 -1.77329E-005	  0.00000E+000	  0.00000E+000
  1.44179E+002	  2.82189E-005	 -2.48896E-005	  0.00000E+000	  0.00000E+000
  1.57286E+002	  4.54615E-005	  3.27898E-005	  0.00000E+000	  0.00000E+000
  1.70394E+002	 -6.85853E-005	 -2.08308E-006	  0.00000E+000	  0.00000E+000
  1.83501E+002	 -2.70923E-005	 -7.46272E-005	  0.00000E+000	  0.00000E+000
  1.96608E+002	  1.33247E-006	 -1.37940E-005	  0.00000E+000	  0.00000E+000
  2.09715E+002	 -6.05909E-006	 -1.97396E-005	  0.00000E+000	  0.00000E+000
  2.35930E+002	 -8.25016E-006	  1.53162E-005	  0.00000E+000	  0.00000E+000
  2.62144E+002	  2.82422E-005	  6.98065E-005	  0.00000E+000	  0.00000E+000
  2.88358E+002	  9.27563E-006	  7.23784E-006	  0.00000E+000	  0.00000E+000
  3.14573E+002	 -4.41484E-005	 -3.73384E-005	  0.00000E+000	  0.00000E+000
  3.40787E+002	 -6.28103E-006	  1.42836E-005	  0.00000E+000	  0.00000E+000
  3.67002E+002	 -2.87581E-006	 -2.09976E-005	  0.00000E+000	  0.00000E+000
  3.93216E+002	  1.69758E-005	  2.44790E-005	  0.00000E+000	  0.00000E+000
  4.19430E+002	  1.08570E-006	 -1.05671E-005	  0.00000E+000	  0.00000E+000
  4.71859E+002	  4.01918E-005	  4.21880E-005	  0.00000E+000	  0.00000E+000
  5.24288E+002	  2.54424E-005	  4.76866E-005	  0.00000E+000	  0.00000E+000
  5.76717E+002	 -1.40424E-005	 -2.98420E-005	  0.00000E+000	  0.00000E+000
  6.29146E+002	  4.91623E-006	  1.07842E-005	  0.00000E+000	  0.00000E+000
  6.81574E+002	 -6.67137E-006	  5.07712E-006	  0.00000E+000	  0.00000E+000
  7.34003E+002	 -2.87222E-006	 -1.43013E-005	  0.00000E+000	  0.00000E+000
  7.86432E+002	 -1.42837E-006	 -4.86327E-006	  0.00000E+000	  0.00000E+000
  8.38861E+002	 -1.09948E-005	 -8.95543E-006	  0.00000E+000	  0.00000E+000
  9.43718E+002	  1.00201E-005	  1.39030E-005	  0.00000E+000	  0.00000E+000
  1.04858E+003	 -2.25594E-005	 -2.25130E-005	  0.00000E+000	  0.00000E+000
  1.15343E+003	  4.66001E-006	  1.77851E-006	  0.00000E+000	  0.00000E+000
  1.25829E+003	 -6.97621E-006	  1.23377E-005	  0.00000E+000	  0.00000E+000
  1.36315E+003	 -8.34839E-006	 -7.22703E-007	  0.00000E+000	  0.00000E+000
  1.46801E+003	 -1.03459E-005	 -1.72768E-005	  0.00000E+000	  0.00000E+000
  1.57286E+003	  5.05946E-006	 -6.14708E-006	  0.00000E+000	  0.00000E+000
  1.67772E+003	 -4.00196E-006	 -8.85009E-006	  0.00000E+000	  0.00000E+000
  1.88744E+003	 -6.18888E-006	 -7.35260E-006	  0.00000E+000	  0.00000E+000
  2.09715E+003	  4.89496E-006	  9.49453E-006	  0.00000E+000	  0.00000E+000
  2.30687E+003	  7.04490E-006	  1.15789E-005	  0.00000E+000	  0.00000E+000
  2.51658E+003	  1.27979E-005	  8.48408E-006	  0.00000E+000	  0.00000E+000
  2.72630E+003	 -5.86438E-007	  2.60465E-007	  0.00000E+000	  0.00000E+000
  2.93601E+003	 -2.51712E-006	  8.28700E-006	  0.00000E+000	  0.00000E+000
  3.14573E+003	 -1.39025E-006	  3.25577E-006	  0.00000E+000	  0.00000E+000
  3.35544E+003	  2.67716E-006	  3.18353E-006	  0.00000E+000	  0.00000E+000
  3.77487E+003	 -2.40705E-006	 -3.54976E-006	  0.00000E+000	  0.00000E+000
  4.19430E+003	 -2.14414E-006	  1.05714E-005	  0.00000E+000	  0.00000E+000
  4.61373E+003	 -8.34939E-006	 -7.59372E-006	  0.00000E+000	  0.00000E+000
  5.03317E+003	  5.94764E-006	  1.73468E-005	  0.00000E+000	  0.00000E+000
  5.45260E+003	 -1.96520E-007	  8.01364E-007	  0.00000E+000	  0.00000E+000
  5.87203E+003	 -1.90086E-006	  2.80112E-006	  0.00000E+000	  0.00000E+000
  6.29146E+003	  2.84848E-006	  1.94361E-006	  0.00000E+000	  0.00000E+000
  6.71089E+003	  2.35800E-006	  7.85488E-006	  0.00000E+000	  0.00000E+000
  7.54975E+003	 -2.23819E-006	 -1.53385E-005	  0.00000E+000	  0.00000E+000
  8.38861E+003	  8.93104E-006	  1.69306E-005	  0.00000E+000	  0.00000E+000
  9.22747E+003	 -7.41770E-006	 -1.37325E-005	  0.00000E+000	  0.00000E+000
  1.00663E+004	  1.77568E-006	 -5.58763E-006	  0.00000E+000	  0.00000E+000
  1.09052E+004	  1.42825E-005	  2.68187E-005	  0.00000E+000	  0.00000E+000
  1.17441E+004	 -1.32716E-005	 -2.55567E-005	  0.00000E+000	  0.00000E+000
  1.25829E+004	  1.07485E-005	  1.01058E-005	  0.00000E+000	  0.00000E+000

"Count Rate"
       0.11719	      39.36954	      34.50805	       0.00000	       0.00000
       0.23438	      39.68511	      35.51447	       0.00000	       0.00000
       0.35156	      39.38660	      35.11361	       0.00000	       0.00000
       0.46875	      39.40366	      35.10508	       0.00000	       0.00000
       0.58594	      39.73629	      34.68716	       0.00000	       0.00000
       0.70313	      39.59982	      33.59546	       0.00000	       0.00000
       0.82031	      40.13715	      35.03685	       0.00000	       0.00000
       0.93750	      39.04544	      34.86627	       0.00000	       0.00000
       1.05469	      38.90045	      35.40359	       0.00000	       0.00000
       1.17188	      39.97509	      34.73833	       0.00000	       0.00000
       1.28906	      38.75546	      34.91744	       0.00000	       0.00000
       1.40625	      39.88128	      34.47393	       0.00000	       0.00000
       1.52344	      40.20538	      34.82362	       0.00000	       0.00000
       1.64063	      39.61688	      35.62534	       0.00000	       0.00000
       1.75781	      38.63605	      34.77245	       0.00000	       0.00000
       1.87500	      39.78746	      35.00273	       0.00000	       0.00000
       1.99219	      40.37595	      35.15625	       0.00000	       0.00000
       2.10938	      38.92604	      34.31189	       0.00000	       0.00000
       2.22656	      39.48042	      35.13066	       0.00000	       0.00000
       2.34375	      38.96868	      34.53364	       0.00000	       0.00000
       2.46094	      39.42924	      35.19889	       0.00000	       0.00000
       2.57813	      37.60405	      33.69780	       0.00000	       0.00000
       2.69531	      39.04544	      35.43771	       0.00000	       0.00000
       2.81250	      39.54865	      34.98567	       0.00000	       0.00000
       2.92969	      39.13926	      35.12214	       0.00000	       0.00000
       3.04688	      38.71281	      34.00484	       0.00000	       0.00000
       3.16406	      39.07103	      33.72339	       0.00000	       0.00000
       3.28125	      39.53159	      34.94303	       0.00000	       0.00000
       3.39844	      40.24802	      35.07949	       0.00000	       0.00000
       3.51563	      39.31837	      34.13278	       0.00000	       0.00000
       3.63281	      39.82158	      35.66798	       0.00000	       0.00000
       3.75000	      39.79599	      34.97714	       0.00000	       0.00000
       3.86719	      38.96868	      35.02832	       0.00000	       0.00000
       3.98438	      38.88339	      34.55922	       0.00000	       0.00000
       4.10156	      39.07103	      35.34389	       0.00000	       0.00000
       4.21875	      38.63605	      34.50805	       0.00000	       0.00000
       4.33594	      39.49747	      34.27777	       0.00000	       0.00000
       4.45313	      39.36954	      35.32683	       0.00000	       0.00000
       4.57031	      39.41219	      34.66157	       0.00000	       0.00000
       4.68750	      39.50600	      34.48246	       0.00000	       0.00000
       4.80469	      39.56571	      33.74898	       0.00000	       0.00000
       4.92188	      38.53371	      34.17542	       0.00000	       0.00000
       5.03906	      39.00280	      35.13919	       0.00000	       0.00000
       5.15625	      39.30984	      34.52511	       0.00000	       0.00000
       5.27344	      40.14568	      34.37159	       0.00000	       0.00000
       5.39063	      38.96868	      34.09013	       0.00000	       0.00000
       5.50781	      39.84716	      34.71275	       0.00000	       0.00000
       5.62500	      39.34396	      35.09655	       0.00000	       0.00000
       5.74219	      39.83863	      35.05390	       0.00000	       0.00000
       5.85938	      39.65953	      34.97714	       0.00000	       0.00000
       5.97656	      38.38871	      35.08802	       0.00000	       0.00000
       6.09375	      38.61900	      34.88332	       0.00000	       0.00000
       6.21094	      40.06039	      35.21595	       0.00000	       0.00000
       6.32813	      38.25225	      35.01979	       0.00000	       0.00000
       6.44531	      39.53159	      34.57628	       0.00000	       0.00000
       6.56250	      40.00068	      34.76392	       0.00000	       0.00000
       6.67969	      39.44630	      34.69569	       0.00000	       0.00000
       6.79688	      38.71281	      33.64663	       0.00000	       0.00000
       6.91406	      39.02839	      35.10508	       0.00000	       0.00000
       7.03125	      38.61900	      34.91744	       0.00000	       0.00000
       7.14844	      39.14779	      35.27565	       0.00000	       0.00000
       7.26563	      38.79810	      34.81509	       0.00000	       0.00000
       7.38281	      38.89192	      34.23513	       0.00000	       0.00000
       7.50000	      39.64247	      34.36306	       0.00000	       0.00000
       7.61719	      39.11367	      33.77456	       0.00000	       0.00000
       7.73438	      39.45483	      34.71275	       0.00000	       0.00000
       7.85156	      40.12009	      34.63599	       0.00000	       0.00000
       7.96875	      39.58276	      34.15836	       0.00000	       0.00000
       8.08594	      39.86422	      34.43129	       0.00000	       0.00000
       8.20313	      39.41219	      34.09866	       0.00000	       0.00000
       8.32031	      39.92392	      34.43129	       0.00000	       0.00000
       8.43750	      39.95804	      34.79803	       0.00000	       0.00000
       8.55469	      39.91539	      35.13919	       0.00000	       0.00000
       8.67188	      39.86422	      34.90891	       0.00000	       0.00000
       8.78906	      39.42924	      34.63599	       0.00000	       0.00000
       8.90625	      38.91751	      34.49099	       0.00000	       0.00000
       9.02344	      39.46336	      34.47393	       0.00000	       0.00000
       9.14063	      38.82369	      34.96008	       0.00000	       0.00000
       9.25781	      39.13926	      33.91956	       0.00000	       0.00000
       9.37500	      38.96868	      34.90891	       0.00000	       0.00000
       9.49219	      38.71281	      34.96008	       0.00000	       0.00000
       9.60938	      39.51453	      34.21807	       0.00000	       0.00000
       9.72656	      39.17338	      34.64452	       0.00000	       0.00000
       9.84375	      38.51665	      34.53364	       0.00000	       0.00000
       9.96094	      38.95163	      34.11572	       0.00000	       0.00000
      10.07813	      39.45483	      34.60187	       0.00000	       0.00000
      10.19531	      39.30984	      34.37159	       0.00000	       0.00000
      10.31250	      39.22455	      33.59546	       0.00000	       0.00000
      10.42969	      39.00280	      34.47393	       0.00000	       0.00000
      10.54688	      39.66805	      35.22448	       0.00000	       0.00000
      10.66406	      38.67017	      34.33747	       0.00000	       0.00000
      10.78125	      38.18402	      35.67651	       0.00000	       0.00000
      10.89844	      39.54012	      34.90891	       0.00000	       0.00000
      11.01563	      39.21602	      34.83215	       0.00000	       0.00000
      11.13281	      39.05397	      33.40782	       0.00000	       0.00000
      11.25000	      39.74482	      34.68716	       0.00000	       0.00000
      11.36719	      39.60835	      35.41212	       0.00000	       0.00000
      11.48438	      40.15420	      34.70422	       0.00000	       0.00000
      11.60156	      38.83222	      35.74475	       0.00000	       0.00000
      11.71875	      38.98574	      34.74686	       0.00000	       0.00000
      11.83594	      39.77893	      34.32042	       0.00000	       0.00000
      11.95313	      39.71923	      34.49099	       0.00000	       0.00000
      12.07031	      40.21391	      33.47605	       0.00000	       0.00000
      12.18750	      38.83222	      34.94303	       0.00000	       0.00000
      12.30469	      39.75334	      35.01979	       0.00000	       0.00000
      12.42188	      39.55718	      34.48246	       0.00000	       0.00000
      12.53906	      39.53159	      34.89185	       0.00000	       0.00000
      12.65625	      38.55929	      34.58481	       0.00000	       0.00000
      12.77344	      39.27572	      34.69569	       0.00000	       0.00000
      12.89063	      39.99215	      33.03255	       0.00000	       0.00000
      13.00781	      38.97721	      34.46541	       0.00000	       0.00000
      13.12500	      39.92392	      33.54428	       0.00000	       0.00000
      13.24219	      39.70217	      34.47393	       0.00000	       0.00000
      13.35938	      39.44630	      35.50594	       0.00000	       0.00000
      13.47656	      39.43777	      35.11361	       0.00000	       0.00000
      13.59375	      39.12220	      35.43771	       0.00000	       0.00000
      13.71094	      40.23096	      34.89185	       0.00000	       0.00000
      13.82813	      39.64247	      34.00484	       0.00000	       0.00000
      13.94531	      40.79387	      34.31189	       0.00000	       0.00000
      14.06250	      39.51453	      34.62746	       0.00000	       0.00000
      14.17969	      40.17126	      33.97926	       0.00000	       0.00000
      14.29688	      39.83863	      34.22660	       0.00000	       0.00000
      14.41406	      40.57212	      35.01126	       0.00000	       0.00000
      14.53125	      39.31837	      34.54217	       0.00000	       0.00000
      14.64844	      39.33543	      34.43982	       0.00000	       0.00000
      14.76563	      39.02839	      35.25007	       0.00000	       0.00000
      14.88281	      40.19685	      35.30124	       0.00000	       0.00000
      15.00000	      39.02839	      34.84068	       0.00000	       0.00000
      15.11719	      39.36954	      34.84921	       0.00000	       0.00000
      15.23438	      39.43777	      34.63599	       0.00000	       0.00000
      15.35156	      39.38660	      34.82362	       0.00000	       0.00000
      15.46875	      39.17338	      33.62957	       0.00000	       0.00000
      15.58594	      39.30131	      33.72339	       0.00000	       0.00000
      15.70313	      39.37807	      34.66157	       0.00000	       0.00000
      15.82031	      39.89833	      34.43129	       0.00000	       0.00000
      15.93750	      38.95163	      33.92809	       0.00000	       0.00000
      16.05469	      39.78746	      34.76392	       0.00000	       0.00000
      16.17188	      39.48895	      34.70422	       0.00000	       0.00000
      16.28906	      40.15420	      34.76392	       0.00000	       0.00000
      16.40625	      38.72987	      35.11361	       0.00000	       0.00000
      16.52344	      39.83010	      35.99208	       0.00000	       0.00000
      16.64063	      39.06250	      34.85774	       0.00000	       0.00000
      16.75781	      39.54865	      35.04538	       0.00000	       0.00000
      16.87500	      40.21391	      33.84280	       0.00000	       0.00000
      16.99219	      38.26078	      34.47393	       0.00000	       0.00000
      17.10938	      40.21391	      35.31830	       0.00000	       0.00000
      17.22656	      39.44630	      34.80656	       0.00000	       0.00000
      17.34375	      39.60835	      34.22660	       0.00000	       0.00000
      17.46094	      38.58488	      34.90891	       0.00000	       0.00000
      17.57813	      39.31837	      33.26283	       0.00000	       0.00000
      17.69531	      39.23308	      35.36947	       0.00000	       0.00000
      17.81250	      38.61900	      34.24366	       0.00000	       0.00000
      17.92969	      38.90045	      33.72339	       0.00000	       0.00000
      18.04688	      40.10303	      34.25218	       0.00000	       0.00000
      18.16406	      39.58276	      35.19036	       0.00000	       0.00000
      18.28125	      39.98362	      34.92597	       0.00000	       0.00000
      18.39844	      39.79599	      34.72128	       0.00000	       0.00000
      18.51563	      38.89192	      35.00273	       0.00000	       0.00000
      18.63281	      39.83863	      34.88332	       0.00000	       0.00000
      18.75000	      39.47189	      34.59334	       0.00000	       0.00000
      18.86719	      39.96657	      34.85774	       0.00000	       0.00000
      18.98438	      38.73840	      34.15836	       0.00000	       0.00000
      19.10156	      39.62541	      35.73622	       0.00000	       0.00000
      19.21875	      39.19896	      35.00273	       0.00000	       0.00000
      19.33594	      40.04333	      35.42918	       0.00000	       0.00000
      19.45313	      38.94310	      34.42276	       0.00000	       0.00000
      19.57031	      39.83010	      35.12214	       0.00000	       0.00000
      19.68750	      39.39513	      33.40782	       0.00000	       0.00000
      19.80469	      39.83863	      34.40570	       0.00000	       0.00000
      19.92188	      39.81305	      34.74686	       0.00000	       0.00000
      20.03906	      39.36954	      34.23513	       0.00000	       0.00000
      20.15625	      39.36101	      34.49952	       0.00000	       0.00000
      20.27344	      39.54012	      34.73833	       0.00000	       0.00000
      20.39063	      39.73629	      34.42276	       0.00000	       0.00000
      20.50781	      39.54865	      33.97926	       0.00000	       0.00000
      20.62500	      39.02839	      35.75328	       0.00000	       0.00000
      20.74219	      39.28425	      34.56775	       0.00000	       0.00000
      20.85938	      39.42072	      34.67010	       0.00000	       0.00000
      20.97656	      38.71281	      34.34600	       0.00000	       0.00000
      21.09375	      39.43777	      35.68504	       0.00000	       0.00000
      21.21094	      40.12862	      34.36306	       0.00000	       0.00000
      21.32813	      38.85781	      34.46541	       0.00000	       0.00000
      21.44531	      39.02839	      34.83215	       0.00000	       0.00000
      21.56250	      39.30984	      34.52511	       0.00000	       0.00000
      21.67969	      39.88128	      35.63387	       0.00000	       0.00000
      21.79688	      39.47189	      34.75539	       0.00000	       0.00000
      21.91406	      38.56782	      35.28418	       0.00000	       0.00000
      22.03125	      39.83010	      34.54217	       0.00000	       0.00000
      22.14844	      40.35890	      34.50805	       0.00000	       0.00000
      22.26563	      39.71923	      34.64452	       0.00000	       0.00000
      22.38281	      38.92604	      34.96008	       0.00000	       0.00000
      22.50000	      39.72776	      35.20742	       0.00000	       0.00000
      22.61719	      40.14568	      34.57628	       0.00000	       0.00000
      22.73438	      39.13926	      35.24154	       0.00000	       0.00000
      22.85156	      38.94310	      34.55922	       0.00000	       0.00000
      22.96875	      39.61688	      34.26071	       0.00000	       0.00000
      23.08594	      39.85569	      34.67863	       0.00000	       0.00000
      23.20313	      40.00921	      34.67010	       0.00000	       0.00000
      23.32031	      38.81516	      34.49099	       0.00000	       0.00000
      23.43750	      39.65953	      34.49099	       0.00000	       0.00000
      23.55469	      39.63394	      33.83427	       0.00000	       0.00000
      23.67188	      38.77252	      35.27565	       0.00000	       0.00000
      23.78906	      38.60194	      35.63387	       0.00000	       0.00000
      23.90625	      39.78746	      34.95156	       0.00000	       0.00000
      24.02344	      38.56782	      35.34389	       0.00000	       0.00000
      24.14063	      39.19896	      34.14131	       0.00000	       0.00000
      24.25781	      39.47189	      33.91103	       0.00000	       0.00000
      24.37500	      39.21602	      34.72128	       0.00000	       0.00000
      24.49219	      40.22243	      35.37800	       0.00000	       0.00000
      24.60938	      39.87275	      34.55070	       0.00000	       0.00000
      24.72656	      39.39513	      35.47182	       0.00000	       0.00000
      24.84375	      40.38448	      34.65304	       0.00000	       0.00000
      24.96094	      38.75546	      34.47393	       0.00000	       0.00000
      25.07813	      38.37166	      34.32042	       0.00000	       0.00000
      25.19531	      39.20749	      34.13278	       0.00000	       0.00000
      25.31250	      39.30131	      35.13066	       0.00000	       0.00000
      25.42969	      39.51453	      34.34600	       0.00000	       0.00000
      25.54688	      39.30131	      34.84068	       0.00000	       0.00000
      25.66406	      39.89833	      35.02832	       0.00000	       0.00000
      25.78125	      38.93457	      34.26071	       0.00000	       0.00000
      25.89844	      39.89833	      34.99420	       0.00000	       0.00000
      26.01563	      39.11367	      35.03685	       0.00000	       0.00000
      26.13281	      39.02839	      35.95797	       0.00000	       0.00000
      26.25000	      38.37166	      34.91744	       0.00000	       0.00000
      26.36719	      39.61688	      34.57628	       0.00000	       0.00000
      26.48438	      38.52518	      34.54217	       0.00000	       0.00000
      26.60156	      39.25867	      35.10508	       0.00000	       0.00000
      26.71875	      39.82158	      34.15836	       0.00000	       0.00000
      26.83594	      39.13926	      34.49099	       0.00000	       0.00000
      26.95313	      39.26719	      35.20742	       0.00000	       0.00000
      27.07031	      39.39513	      34.93450	       0.00000	       0.00000
      27.18750	      39.25867	      33.95367	       0.00000	       0.00000
      27.30469	      40.31625	      34.10719	       0.00000	       0.00000
      27.42188	      39.09661	      34.32895	       0.00000	       0.00000
      27.53906	      39.20749	      34.40570	       0.00000	       0.00000
      27.65625	      38.20108	      34.86627	       0.00000	       0.00000
      27.77344	      39.12220	      33.63810	       0.00000	       0.00000
      27.89063	      38.42283	      35.62534	       0.00000	       0.00000
      28.00781	      39.32690	      35.69357	       0.00000	       0.00000
      28.12500	      40.05186	      34.51658	       0.00000	       0.00000
      28.24219	      39.01133	      35.20742	       0.00000	       0.00000
      28.35938	      40.70858	      35.07096	       0.00000	       0.00000
      28.47656	      39.07103	      35.30124	       0.00000	       0.00000
      28.59375	      39.82158	      34.88332	       0.00000	       0.00000
      28.71094	      39.32690	      34.46541	       0.00000	       0.00000
      28.82813	      39.80452	      33.95367	       0.00000	       0.00000
      28.94531	      40.29066	      34.01337	       0.00000	       0.00000
      29.06250	      39.64247	      34.38865	       0.00000	       0.00000
      29.17969	      39.64247	      34.21807	       0.00000	       0.00000
      29.29688	      39.12220	      34.53364	       0.00000	       0.00000
      29.41406	      39.39513	      34.47393	       0.00000	       0.00000
      29.53125	      39.47189	      35.35242	       0.00000	       0.00000
      29.64844	      39.24161	      35.31830	       0.00000	       0.00000
      29.76563	      39.13073	      35.66798	       0.00000	       0.00000
      29.88281	      40.09450	      35.33536	       0.00000	       0.00000

Monitor Diode	1752587.64

"Cumulant 1.Order"
FluctuationFreq. [1/ms]	 0.0000E+000
DiffCoefficient [µm²/s]	 0.0000E+000
Hydrodyn. Radius [nm]	 0.0000E+000

"Cumulant 2.Order"
FluctuationFreq. [1/ms]	 0.0000E+000
DiffCoefficient [µm²/s]	 0.0000E+000
Hydrodyn. Radius [nm]	 0.0000E+000
Expansion Parameter µ2	 0.0000E+000

"Cumulant 3.Order"
FluctuationFreq. [1/ms]	 0.0000E+000
DiffCoefficient [µm²/s]	 0.0000E+000
Hydrodyn. Radius [nm]	 0.0000E+000
Expansion Parameter µ2	 0.0000E+000
Expansion Parameter µ3	 0.0000E+000

