ALV-7004 or ALV-7004/FAST
Date :	"13-Nov-18"
Time :	"10:41:07"
Samplename : 	""
SampMemo(0) : 	""
SampMemo(1) : 	""
SampMemo(2) : 	""
SampMemo(3) : 	""
SampMemo(4) : 	""
SampMemo(5) : 	""
SampMemo(6) : 	""
SampMemo(7) : 	""
SampMemo(8) : 	""
SampMemo(9) : 	""
Temperature [K] :	     298.57069
Viscosity [cp]  :	       0.89000
Refractive Index:	       1.33200
Wavelength [nm] :	     632.80000
Angle [°]       :	      45.00000
Duration [s]    :	        30
FloatDur [ms]   :	        30022
Stop TP [ms]   :	    971786
Runs            :	         1
Mode            :	"C-CH0/1a1/0 "
MeanCR0 [kHz]   :	      46.07357
MeanCR1 [kHz]   :	      40.33199
MeanCR2 [kHz]   :	       0.00000
MeanCR3 [kHz]   :	       0.00000

"Correlation"
  3.12500E-006	  1.34096E-001	  1.31225E-001	  0.00000E+000	  0.00000E+000
  6.25000E-006	 -9.46054E-003	  5.08335E-002	  0.00000E+000	  0.00000E+000
  9.37500E-006	  1.35085E-002	 -1.80736E-002	  0.00000E+000	  0.00000E+000
  1.25000E-005	  2.49930E-002	  6.23180E-002	  0.00000E+000	  0.00000E+000
  1.56250E-005	  2.02394E-003	 -2.95581E-002	  0.00000E+000	  0.00000E+000
  1.87500E-005	  5.37043E-002	  9.67716E-002	  0.00000E+000	  0.00000E+000
  2.18750E-005	  1.35085E-002	  1.63800E-002	  0.00000E+000	  0.00000E+000
  2.50000E-005	 -2.09451E-002	  3.36067E-002	  0.00000E+000	  0.00000E+000
  2.81250E-005	  9.67712E-002	  9.67716E-002	  0.00000E+000	  0.00000E+000
  3.12500E-005	 -5.25275E-002	  5.08335E-002	  0.00000E+000	  0.00000E+000
  3.43750E-005	 -6.58945E-003	 -3.53004E-002	  0.00000E+000	  0.00000E+000
  3.75000E-005	  2.78641E-002	 -2.95581E-002	  0.00000E+000	  0.00000E+000
  4.06250E-005	  7.66733E-002	  3.36067E-002	  0.00000E+000	  0.00000E+000
  4.37500E-005	 -1.01337E-001	  4.89544E-003	  0.00000E+000	  0.00000E+000
  4.68750E-005	 -3.53007E-002	  2.78645E-002	  0.00000E+000	  0.00000E+000
  5.00000E-005	  5.22687E-002	  1.54194E-001	  0.00000E+000	  0.00000E+000
  5.62500E-005	  2.35574E-002	  3.93490E-002	  0.00000E+000	  0.00000E+000
  6.25000E-005	 -7.26254E-002	 -2.09447E-002	  0.00000E+000	  0.00000E+000
  6.87500E-005	 -2.09451E-002	 -6.68828E-002	  0.00000E+000	  0.00000E+000
  7.50000E-005	  4.22198E-002	  8.24159E-002	  0.00000E+000	  0.00000E+000
  8.12500E-005	 -4.82208E-002	 -3.81715E-002	  0.00000E+000	  0.00000E+000
  8.75000E-005	 -4.53497E-002	 -7.83673E-002	  0.00000E+000	  0.00000E+000
  9.37500E-005	  3.45950E-003	 -1.52025E-002	  0.00000E+000	  0.00000E+000
  1.00000E-004	  3.36063E-002	 -3.71795E-003	  0.00000E+000	  0.00000E+000
  1.12500E-004	 -6.58946E-003	 -4.67849E-002	  0.00000E+000	  0.00000E+000
  1.25000E-004	  1.20729E-002	  3.93490E-002	  0.00000E+000	  0.00000E+000
  1.37500E-004	  1.78151E-002	 -4.39138E-002	  0.00000E+000	  0.00000E+000
  1.50000E-004	 -1.80740E-002	 -2.52514E-002	  0.00000E+000	  0.00000E+000
  1.62500E-004	 -1.95095E-002	 -1.23313E-002	  0.00000E+000	  0.00000E+000
  1.75000E-004	 -1.59206E-002	 -1.80736E-002	  0.00000E+000	  0.00000E+000
  1.87500E-004	  3.28886E-002	  5.37046E-002	  0.00000E+000	  0.00000E+000
  2.00000E-004	  1.74563E-002	  4.15023E-002	  0.00000E+000	  0.00000E+000
  2.25000E-004	 -9.81947E-003	 -1.16136E-002	  0.00000E+000	  0.00000E+000
  2.50000E-004	  2.53519E-002	  2.02430E-003	  0.00000E+000	  0.00000E+000
  2.75000E-004	  1.13551E-002	  2.85823E-002	  0.00000E+000	  0.00000E+000
  3.00000E-004	  2.96585E-002	 -5.15353E-003	  0.00000E+000	  0.00000E+000
  3.25000E-004	  9.47259E-004	 -1.01780E-002	  0.00000E+000	  0.00000E+000
  3.50000E-004	  2.28396E-002	 -8.74244E-003	  0.00000E+000	  0.00000E+000
  3.75000E-004	  3.79130E-002	  3.79134E-002	  0.00000E+000	  0.00000E+000
  4.00000E-004	  2.17629E-002	  1.24321E-002	  0.00000E+000	  0.00000E+000
  4.50000E-004	 -2.46221E-003	  7.04876E-003	  0.00000E+000	  0.00000E+000
  5.00000E-004	 -4.79500E-003	  6.33098E-003	  0.00000E+000	  0.00000E+000
  5.50000E-004	 -4.88316E-004	 -4.43576E-003	  0.00000E+000	  0.00000E+000
  6.00000E-004	  1.33290E-002	  1.42266E-002	  0.00000E+000	  0.00000E+000
  6.50000E-004	 -1.87918E-002	 -6.58910E-003	  0.00000E+000	  0.00000E+000
  7.00000E-004	  6.15117E-003	  2.74207E-003	  0.00000E+000	  0.00000E+000
  7.50000E-004	  7.58673E-003	  1.30650E-003	  0.00000E+000	  0.00000E+000
  8.00000E-004	 -6.14088E-003	 -8.56303E-003	  0.00000E+000	  0.00000E+000
  9.00000E-004	 -9.36955E-004	  5.03575E-005	  0.00000E+000	  0.00000E+000
  1.00000E-003	  1.38673E-002	  1.04582E-002	  0.00000E+000	  0.00000E+000
  1.10000E-003	  2.11362E-003	 -4.43578E-003	  0.00000E+000	  0.00000E+000
  1.20000E-003	 -4.07726E-003	 -1.44847E-002	  0.00000E+000	  0.00000E+000
  1.30000E-003	  7.40726E-003	  9.91987E-003	  0.00000E+000	  0.00000E+000
  1.40000E-003	 -3.00058E-003	 -1.32286E-002	  0.00000E+000	  0.00000E+000
  1.50000E-003	 -3.98753E-003	 -1.14342E-002	  0.00000E+000	  0.00000E+000
  1.60000E-003	 -9.36235E-004	  3.01116E-003	  0.00000E+000	  0.00000E+000
  1.80000E-003	  1.71059E-003	  1.06376E-002	  0.00000E+000	  0.00000E+000
  2.00000E-003	 -5.37752E-003	  9.38147E-003	  0.00000E+000	  0.00000E+000
  2.20000E-003	 -6.67850E-003	  6.78364E-004	  0.00000E+000	  0.00000E+000
  2.40000E-003	 -7.66545E-003	 -3.17972E-003	  0.00000E+000	  0.00000E+000
  2.60000E-003	  3.23588E-003	  7.58702E-003	  0.00000E+000	  0.00000E+000
  2.80000E-003	 -3.13445E-003	  3.37005E-003	  0.00000E+000	  0.00000E+000
  3.00000E-003	 -4.97376E-003	  1.48587E-003	  0.00000E+000	  0.00000E+000
  3.20000E-003	 -2.85488E-004	 -3.26882E-003	  0.00000E+000	  0.00000E+000
  3.60000E-003	  2.07627E-004	 -3.40413E-003	  0.00000E+000	  0.00000E+000
  4.00000E-003	 -2.70836E-003	 -7.44166E-003	  0.00000E+000	  0.00000E+000
  4.40000E-003	 -1.25106E-002	 -1.20624E-002	  0.00000E+000	  0.00000E+000
  4.80000E-003	 -2.39434E-003	 -3.53555E-004	  0.00000E+000	  0.00000E+000
  5.20000E-003	  2.04694E-003	 -3.98417E-004	  0.00000E+000	  0.00000E+000
  5.60000E-003	 -7.10479E-003	 -1.60967E-003	  0.00000E+000	  0.00000E+000
  6.00000E-003	 -1.65412E-003	 -6.09581E-003	  0.00000E+000	  0.00000E+000
  6.40000E-003	 -3.29838E-004	 -2.32695E-003	  0.00000E+000	  0.00000E+000
  7.20000E-003	  8.47776E-004	 -2.03535E-003	  0.00000E+000	  0.00000E+000
  8.00000E-003	  2.23848E-003	  2.76482E-003	  0.00000E+000	  0.00000E+000
  8.80000E-003	  9.48711E-004	  2.54052E-003	  0.00000E+000	  0.00000E+000
  9.60000E-003	  2.91140E-003	  3.50504E-003	  0.00000E+000	  0.00000E+000
  1.04000E-002	 -6.06706E-005	 -1.65843E-005	  0.00000E+000	  0.00000E+000
  1.12000E-002	 -2.35982E-003	 -3.94196E-003	  0.00000E+000	  0.00000E+000
  1.20000E-002	  3.36002E-003	  3.87168E-004	  0.00000E+000	  0.00000E+000
  1.28000E-002	  3.34385E-003	 -2.44858E-003	  0.00000E+000	  0.00000E+000
  1.44000E-002	 -1.83837E-003	 -2.06870E-003	  0.00000E+000	  0.00000E+000
  1.60000E-002	  1.53185E-003	  3.02307E-003	  0.00000E+000	  0.00000E+000
  1.76000E-002	  3.41603E-003	  2.02491E-003	  0.00000E+000	  0.00000E+000
  1.92000E-002	  3.19733E-003	  4.30163E-003	  0.00000E+000	  0.00000E+000
  2.08000E-002	  2.36178E-003	  3.74086E-003	  0.00000E+000	  0.00000E+000
  2.24000E-002	  7.29947E-004	  1.32956E-003	  0.00000E+000	  0.00000E+000
  2.40000E-002	 -1.39012E-003	  1.30640E-003	  0.00000E+000	  0.00000E+000
  2.56000E-002	 -7.58246E-004	  8.37502E-004	  0.00000E+000	  0.00000E+000
  2.88000E-002	 -1.16167E-004	  1.14592E-003	  0.00000E+000	  0.00000E+000
  3.20000E-002	  1.22968E-003	  3.66938E-003	  0.00000E+000	  0.00000E+000
  3.52000E-002	 -8.21961E-004	 -2.69462E-003	  0.00000E+000	  0.00000E+000
  3.84000E-002	  4.06124E-004	  1.83079E-003	  0.00000E+000	  0.00000E+000
  4.16000E-002	  3.57734E-004	  2.19932E-004	  0.00000E+000	  0.00000E+000
  4.48000E-002	  5.88011E-004	  2.87948E-004	  0.00000E+000	  0.00000E+000
  4.80000E-002	 -3.70904E-004	  1.05059E-003	  0.00000E+000	  0.00000E+000
  5.12000E-002	  3.41842E-004	  2.79588E-003	  0.00000E+000	  0.00000E+000
  5.76000E-002	  7.67662E-004	  1.27547E-003	  0.00000E+000	  0.00000E+000
  6.40000E-002	 -7.10375E-004	  1.64277E-003	  0.00000E+000	  0.00000E+000
  7.04000E-002	  9.29241E-005	 -2.55431E-004	  0.00000E+000	  0.00000E+000
  7.68000E-002	 -2.51535E-004	 -1.02368E-003	  0.00000E+000	  0.00000E+000
  8.32000E-002	  2.30978E-003	  1.26425E-003	  0.00000E+000	  0.00000E+000
  8.96000E-002	 -2.20330E-004	  1.12198E-003	  0.00000E+000	  0.00000E+000
  9.60000E-002	 -2.45927E-004	 -1.76923E-004	  0.00000E+000	  0.00000E+000
  1.02400E-001	 -9.62254E-004	  1.47157E-004	  0.00000E+000	  0.00000E+000
  1.15200E-001	 -1.45363E-003	 -8.60830E-004	  0.00000E+000	  0.00000E+000
  1.28000E-001	 -4.55169E-004	  6.65871E-004	  0.00000E+000	  0.00000E+000
  1.40800E-001	 -5.62758E-004	 -7.38139E-004	  0.00000E+000	  0.00000E+000
  1.53600E-001	  4.05277E-004	  2.40639E-003	  0.00000E+000	  0.00000E+000
  1.66400E-001	 -7.21174E-004	 -2.57277E-004	  0.00000E+000	  0.00000E+000
  1.79200E-001	 -3.04389E-004	 -2.68492E-004	  0.00000E+000	  0.00000E+000
  1.92000E-001	 -9.01612E-004	 -1.91015E-003	  0.00000E+000	  0.00000E+000
  2.04800E-001	 -3.96431E-004	 -9.18900E-004	  0.00000E+000	  0.00000E+000
  2.30400E-001	 -8.55399E-005	 -1.01842E-003	  0.00000E+000	  0.00000E+000
  2.56000E-001	  2.42137E-004	  9.52782E-004	  0.00000E+000	  0.00000E+000
  2.81600E-001	  4.26638E-005	  3.52658E-004	  0.00000E+000	  0.00000E+000
  3.07200E-001	  9.27304E-005	 -7.13494E-004	  0.00000E+000	  0.00000E+000
  3.32800E-001	  6.25908E-005	  8.45463E-004	  0.00000E+000	  0.00000E+000
  3.58400E-001	  9.26895E-004	  2.34240E-004	  0.00000E+000	  0.00000E+000
  3.84000E-001	 -5.98113E-004	 -1.81413E-004	  0.00000E+000	  0.00000E+000
  4.09600E-001	 -5.50425E-005	  1.71855E-004	  0.00000E+000	  0.00000E+000
  4.60800E-001	  1.68467E-004	 -8.11760E-005	  0.00000E+000	  0.00000E+000
  5.12000E-001	  1.22494E-005	 -4.70943E-004	  0.00000E+000	  0.00000E+000
  5.63200E-001	 -3.69425E-005	  2.44756E-004	  0.00000E+000	  0.00000E+000
  6.14400E-001	  5.57168E-004	 -1.95831E-004	  0.00000E+000	  0.00000E+000
  6.65600E-001	 -3.26244E-004	  3.26875E-005	  0.00000E+000	  0.00000E+000
  7.16800E-001	 -8.18705E-004	 -9.15407E-004	  0.00000E+000	  0.00000E+000
  7.68000E-001	 -2.91233E-005	 -4.50309E-004	  0.00000E+000	  0.00000E+000
  8.19200E-001	  1.72684E-004	 -4.80892E-005	  0.00000E+000	  0.00000E+000
  9.21600E-001	  1.70449E-004	 -1.67146E-004	  0.00000E+000	  0.00000E+000
  1.02400E+000	  7.73078E-004	  5.63355E-004	  0.00000E+000	  0.00000E+000
  1.12640E+000	  2.97470E-004	  3.75539E-004	  0.00000E+000	  0.00000E+000
  1.22880E+000	 -2.33055E-005	 -6.13678E-004	  0.00000E+000	  0.00000E+000
  1.33120E+000	 -4.76365E-004	 -1.06377E-004	  0.00000E+000	  0.00000E+000
  1.43360E+000	 -5.70798E-004	 -4.52295E-004	  0.00000E+000	  0.00000E+000
  1.53600E+000	 -1.64068E-004	  2.42250E-004	  0.00000E+000	  0.00000E+000
  1.63840E+000	 -1.06424E-005	  1.01802E-004	  0.00000E+000	  0.00000E+000
  1.84320E+000	 -7.09142E-005	 -6.11597E-005	  0.00000E+000	  0.00000E+000
  2.04800E+000	  2.03065E-005	 -4.11955E-004	  0.00000E+000	  0.00000E+000
  2.25280E+000	  1.07261E-004	 -1.94512E-004	  0.00000E+000	  0.00000E+000
  2.45760E+000	  4.15707E-004	  4.39724E-004	  0.00000E+000	  0.00000E+000
  2.66240E+000	 -3.08210E-004	  7.87454E-005	  0.00000E+000	  0.00000E+000
  2.86720E+000	 -1.08174E-004	 -4.50682E-004	  0.00000E+000	  0.00000E+000
  3.07200E+000	  1.32778E-004	  2.20032E-004	  0.00000E+000	  0.00000E+000
  3.27680E+000	  1.45121E-004	  9.65492E-005	  0.00000E+000	  0.00000E+000
  3.68640E+000	  1.16950E-004	  1.27191E-004	  0.00000E+000	  0.00000E+000
  4.09600E+000	  1.40000E-004	  7.88049E-005	  0.00000E+000	  0.00000E+000
  4.50560E+000	 -2.07105E-004	 -4.02768E-004	  0.00000E+000	  0.00000E+000
  4.91520E+000	  1.33534E-004	  1.82849E-004	  0.00000E+000	  0.00000E+000
  5.32480E+000	  8.05466E-005	  5.46635E-005	  0.00000E+000	  0.00000E+000
  5.73440E+000	  1.55273E-004	  9.06737E-005	  0.00000E+000	  0.00000E+000
  6.14400E+000	 -3.39745E-004	 -4.83004E-004	  0.00000E+000	  0.00000E+000
  6.55360E+000	  1.33698E-004	  4.79650E-005	  0.00000E+000	  0.00000E+000
  7.37280E+000	  1.78750E-004	  3.10722E-004	  0.00000E+000	  0.00000E+000
  8.19200E+000	 -1.12999E-004	 -1.87345E-004	  0.00000E+000	  0.00000E+000
  9.01120E+000	 -2.02058E-004	 -1.59841E-004	  0.00000E+000	  0.00000E+000
  9.83040E+000	  1.44293E-004	  2.04106E-004	  0.00000E+000	  0.00000E+000
  1.06496E+001	  1.19344E-005	 -3.76219E-005	  0.00000E+000	  0.00000E+000
  1.14688E+001	  5.59302E-005	 -4.72325E-006	  0.00000E+000	  0.00000E+000
  1.22880E+001	 -3.53608E-005	 -9.11901E-005	  0.00000E+000	  0.00000E+000
  1.31072E+001	 -6.45426E-005	 -6.25380E-005	  0.00000E+000	  0.00000E+000
  1.47456E+001	 -2.54693E-005	 -8.15917E-006	  0.00000E+000	  0.00000E+000
  1.63840E+001	  9.55209E-005	  1.26382E-004	  0.00000E+000	  0.00000E+000
  1.80224E+001	 -3.63464E-005	 -1.50754E-005	  0.00000E+000	  0.00000E+000
  1.96608E+001	  5.03730E-006	  4.97950E-006	  0.00000E+000	  0.00000E+000
  2.12992E+001	  1.01636E-004	  1.33054E-004	  0.00000E+000	  0.00000E+000
  2.29376E+001	 -1.57094E-005	 -4.28018E-005	  0.00000E+000	  0.00000E+000
  2.45760E+001	  1.03507E-005	 -1.33790E-004	  0.00000E+000	  0.00000E+000
  2.62144E+001	 -6.54507E-005	 -6.00155E-005	  0.00000E+000	  0.00000E+000
  2.94912E+001	 -2.95271E-005	 -3.50007E-006	  0.00000E+000	  0.00000E+000
  3.27680E+001	 -7.15351E-005	 -1.03178E-004	  0.00000E+000	  0.00000E+000
  3.60448E+001	 -1.46085E-005	 -6.08633E-005	  0.00000E+000	  0.00000E+000
  3.93216E+001	 -5.11893E-005	 -9.71264E-005	  0.00000E+000	  0.00000E+000
  4.25984E+001	  2.30373E-005	  1.18050E-004	  0.00000E+000	  0.00000E+000
  4.58752E+001	 -3.41827E-005	 -7.35334E-005	  0.00000E+000	  0.00000E+000
  4.91520E+001	 -3.34615E-005	  4.28513E-005	  0.00000E+000	  0.00000E+000
  5.24288E+001	 -6.52493E-005	  1.10247E-005	  0.00000E+000	  0.00000E+000
  5.89824E+001	  8.20314E-005	  9.46218E-005	  0.00000E+000	  0.00000E+000
  6.55360E+001	  2.93563E-005	  6.40986E-005	  0.00000E+000	  0.00000E+000
  7.20896E+001	  4.38590E-005	  6.19439E-005	  0.00000E+000	  0.00000E+000
  7.86432E+001	 -2.21867E-005	 -7.64656E-005	  0.00000E+000	  0.00000E+000
  8.51968E+001	 -6.16890E-006	  4.88131E-006	  0.00000E+000	  0.00000E+000
  9.17504E+001	 -4.30658E-005	 -6.02279E-005	  0.00000E+000	  0.00000E+000
  9.83040E+001	 -6.03642E-005	 -6.30606E-005	  0.00000E+000	  0.00000E+000
  1.04858E+002	  4.30510E-005	  1.22844E-005	  0.00000E+000	  0.00000E+000
  1.17965E+002	  1.86364E-005	 -1.19706E-005	  0.00000E+000	  0.00000E+000
  1.31072E+002	 -3.83294E-005	 -2.54776E-005	  0.00000E+000	  0.00000E+000
  1.44179E+002	  2.69879E-005	  8.67287E-005	  0.00000E+000	  0.00000E+000
  1.57286E+002	  6.99527E-006	  5.29075E-006	  0.00000E+000	  0.00000E+000
  1.70394E+002	  4.23831E-006	 -6.04380E-006	  0.00000E+000	  0.00000E+000
  1.83501E+002	  6.64329E-006	  1.51734E-005	  0.00000E+000	  0.00000E+000
  1.96608E+002	 -1.66426E-005	 -3.80027E-005	  0.00000E+000	  0.00000E+000
  2.09715E+002	 -2.13569E-005	 -5.54426E-005	  0.00000E+000	  0.00000E+000
  2.35930E+002	  9.95396E-006	  2.66597E-006	  0.00000E+000	  0.00000E+000
  2.62144E+002	 -1.86961E-005	 -2.09533E-005	  0.00000E+000	  0.00000E+000
  2.88358E+002	 -2.33713E-005	 -9.11760E-006	  0.00000E+000	  0.00000E+000
  3.14573E+002	  1.81264E-005	 -1.11836E-005	  0.00000E+000	  0.00000E+000
  3.40787E+002	 -1.47380E-005	  1.57229E-005	  0.00000E+000	  0.00000E+000
  3.67002E+002	  2.31465E-005	  2.87973E-005	  0.00000E+000	  0.00000E+000
  3.93216E+002	 -5.43464E-006	 -1.72207E-005	  0.00000E+000	  0.00000E+000
  4.19430E+002	 -8.91255E-006	 -2.55528E-005	  0.00000E+000	  0.00000E+000
  4.71859E+002	 -1.37231E-005	 -4.55704E-006	  0.00000E+000	  0.00000E+000
  5.24288E+002	 -2.94457E-005	 -4.33830E-005	  0.00000E+000	  0.00000E+000
  5.76717E+002	  3.28309E-005	  2.68974E-005	  0.00000E+000	  0.00000E+000
  6.29146E+002	  6.70513E-006	  2.19724E-005	  0.00000E+000	  0.00000E+000
  6.81574E+002	  9.91608E-006	  2.90822E-005	  0.00000E+000	  0.00000E+000
  7.34003E+002	  5.63756E-006	 -9.21744E-006	  0.00000E+000	  0.00000E+000
  7.86432E+002	  1.32928E-006	  8.17679E-006	  0.00000E+000	  0.00000E+000
  8.38861E+002	 -6.45080E-006	 -1.26349E-005	  0.00000E+000	  0.00000E+000
  9.43718E+002	 -1.08455E-005	 -4.48584E-006	  0.00000E+000	  0.00000E+000
  1.04858E+003	  3.27980E-006	  2.47082E-006	  0.00000E+000	  0.00000E+000
  1.15343E+003	 -6.83220E-006	 -1.74536E-005	  0.00000E+000	  0.00000E+000
  1.25829E+003	 -8.12487E-006	  2.98276E-006	  0.00000E+000	  0.00000E+000
  1.36315E+003	 -6.69817E-006	 -1.07466E-005	  0.00000E+000	  0.00000E+000
  1.46801E+003	  4.32527E-006	  1.16367E-005	  0.00000E+000	  0.00000E+000
  1.57286E+003	 -1.27144E-005	 -1.72993E-005	  0.00000E+000	  0.00000E+000
  1.67772E+003	  7.55159E-007	  1.57996E-006	  0.00000E+000	  0.00000E+000
  1.88744E+003	 -4.87943E-007	 -3.74148E-006	  0.00000E+000	  0.00000E+000
  2.09715E+003	  6.98338E-006	 -1.85324E-007	  0.00000E+000	  0.00000E+000
  2.30687E+003	  2.29599E-006	  2.49005E-007	  0.00000E+000	  0.00000E+000
  2.51658E+003	  4.52117E-006	  3.90606E-006	  0.00000E+000	  0.00000E+000
  2.72630E+003	  1.21497E-006	  2.10396E-007	  0.00000E+000	  0.00000E+000
  2.93601E+003	  9.45882E-006	  9.76003E-006	  0.00000E+000	  0.00000E+000
  3.14573E+003	  8.61065E-006	  4.29898E-006	  0.00000E+000	  0.00000E+000
  3.35544E+003	  4.99350E-006	  5.31179E-006	  0.00000E+000	  0.00000E+000
  3.77487E+003	 -2.90862E-006	  3.68023E-006	  0.00000E+000	  0.00000E+000
  4.19430E+003	  1.68813E-006	  1.11904E-006	  0.00000E+000	  0.00000E+000
  4.61373E+003	  3.05783E-007	  1.65721E-006	  0.00000E+000	  0.00000E+000
  5.03317E+003	 -4.66414E-006	 -2.09995E-006	  0.00000E+000	  0.00000E+000
  5.45260E+003	  1.08999E-007	  4.38490E-006	  0.00000E+000	  0.00000E+000
  5.87203E+003	 -3.32621E-006	 -9.11786E-006	  0.00000E+000	  0.00000E+000
  6.29146E+003	 -5.49853E-006	 -8.06529E-006	  0.00000E+000	  0.00000E+000
  6.71089E+003	 -4.64275E-006	 -1.15982E-005	  0.00000E+000	  0.00000E+000
  7.54975E+003	 -1.87716E-006	 -9.89395E-006	  0.00000E+000	  0.00000E+000
  8.38861E+003	  4.18010E-007	  4.42991E-007	  0.00000E+000	  0.00000E+000
  9.22747E+003	  6.35157E-006	  1.86140E-005	  0.00000E+000	  0.00000E+000
  1.00663E+004	  3.80790E-006	  4.33519E-006	  0.00000E+000	  0.00000E+000
  1.09052E+004	  2.04763E-006	  3.88791E-006	  0.00000E+000	  0.00000E+000
  1.17441E+004	 -6.08519E-006	 -6.35918E-006	  0.00000E+000	  0.00000E+000
  1.25829E+004	 -9.09490E-006	 -2.12094E-005	  0.00000E+000	  0.00000E+000

"Count Rate"
       0.11719	      45.99652	      39.83863	       0.00000	       0.00000
       0.23438	      46.31209	      39.46336	       0.00000	       0.00000
       0.35156	      45.66389	      40.88769	       0.00000	       0.00000
       0.46875	      47.12234	      39.63394	       0.00000	       0.00000
       0.58594	      47.23322	      39.38660	       0.00000	       0.00000
       0.70313	      46.90911	      40.96445	       0.00000	       0.00000
       0.82031	      45.74918	      39.97509	       0.00000	       0.00000
       0.93750	      46.43150	      40.86210	       0.00000	       0.00000
       1.05469	      45.93682	      40.64035	       0.00000	       0.00000
       1.17188	      45.60419	      40.81946	       0.00000	       0.00000
       1.28906	      46.82383	      39.77893	       0.00000	       0.00000
       1.40625	      45.92829	      40.18832	       0.00000	       0.00000
       1.52344	      45.61272	      39.74482	       0.00000	       0.00000
       1.64063	      45.10951	      40.87916	       0.00000	       0.00000
       1.75781	      45.46773	      40.49536	       0.00000	       0.00000
       1.87500	      45.89417	      40.08597	       0.00000	       0.00000
       1.99219	      45.04981	      40.31625	       0.00000	       0.00000
       2.10938	      46.46561	      39.85569	       0.00000	       0.00000
       2.22656	      46.29503	      41.15209	       0.00000	       0.00000
       2.34375	      45.46773	      39.30131	       0.00000	       0.00000
       2.46094	      46.77265	      39.79599	       0.00000	       0.00000
       2.57813	      46.21827	      40.22243	       0.00000	       0.00000
       2.69531	      45.45067	      40.10303	       0.00000	       0.00000
       2.81250	      45.88564	      40.46124	       0.00000	       0.00000
       2.92969	      46.23533	      40.27361	       0.00000	       0.00000
       3.04688	      45.54449	      40.00068	       0.00000	       0.00000
       3.16406	      45.66389	      40.75123	       0.00000	       0.00000
       3.28125	      45.46773	      40.42713	       0.00000	       0.00000
       3.39844	      46.20974	      40.34184	       0.00000	       0.00000
       3.51563	      46.45708	      40.45272	       0.00000	       0.00000
       3.63281	      46.35474	      40.65741	       0.00000	       0.00000
       3.75000	      46.33768	      40.52948	       0.00000	       0.00000
       3.86719	      46.32062	      40.46124	       0.00000	       0.00000
       3.98438	      45.55302	      40.16273	       0.00000	       0.00000
       4.10156	      46.61913	      40.70005	       0.00000	       0.00000
       4.21875	      45.19480	      41.47619	       0.00000	       0.00000
       4.33594	      45.48478	      40.05186	       0.00000	       0.00000
       4.45313	      45.20333	      40.17126	       0.00000	       0.00000
       4.57031	      46.15857	      40.23949	       0.00000	       0.00000
       4.68750	      45.72359	      40.45272	       0.00000	       0.00000
       4.80469	      46.10740	      40.40154	       0.00000	       0.00000
       4.92188	      45.54449	      40.04333	       0.00000	       0.00000
       5.03906	      44.82806	      40.65741	       0.00000	       0.00000
       5.15625	      45.94535	      39.56571	       0.00000	       0.00000
       5.27344	      44.61483	      41.76617	       0.00000	       0.00000
       5.39063	      44.68306	      40.25655	       0.00000	       0.00000
       5.50781	      45.00716	      40.00921	       0.00000	       0.00000
       5.62500	      46.59354	      39.86422	       0.00000	       0.00000
       5.74219	      45.95388	      40.93887	       0.00000	       0.00000
       5.85938	      45.69801	      39.53159	       0.00000	       0.00000
       5.97656	      45.86859	      39.24161	       0.00000	       0.00000
       6.09375	      45.83447	      41.02415	       0.00000	       0.00000
       6.21094	      46.53384	      41.76617	       0.00000	       0.00000
       6.32813	      47.48908	      39.96657	       0.00000	       0.00000
       6.44531	      47.36115	      40.37595	       0.00000	       0.00000
       6.56250	      45.43361	      39.93245	       0.00000	       0.00000
       6.67969	      46.18416	      40.39301	       0.00000	       0.00000
       6.79688	      45.39096	      39.82158	       0.00000	       0.00000
       6.91406	      45.63831	      40.42713	       0.00000	       0.00000
       7.03125	      47.86436	      40.01774	       0.00000	       0.00000
       7.14844	      45.57860	      40.14568	       0.00000	       0.00000
       7.26563	      46.41444	      40.22243	       0.00000	       0.00000
       7.38281	      46.92617	      41.10091	       0.00000	       0.00000
       7.50000	      45.72359	      40.11156	       0.00000	       0.00000
       7.61719	      45.47626	      40.61477	       0.00000	       0.00000
       7.73438	      45.90270	      40.00921	       0.00000	       0.00000
       7.85156	      46.61913	      40.17126	       0.00000	       0.00000
       7.96875	      46.45708	      40.02627	       0.00000	       0.00000
       8.08594	      45.63831	      40.31625	       0.00000	       0.00000
       8.20313	      47.39526	      40.16273	       0.00000	       0.00000
       8.32031	      45.47626	      39.69364	       0.00000	       0.00000
       8.43750	      45.89417	      39.69364	       0.00000	       0.00000
       8.55469	      46.96029	      40.44419	       0.00000	       0.00000
       8.67188	      45.47626	      40.49536	       0.00000	       0.00000
       8.78906	      45.94535	      40.37595	       0.00000	       0.00000
       8.90625	      45.07540	      40.64035	       0.00000	       0.00000
       9.02344	      46.18416	      40.12862	       0.00000	       0.00000
       9.14063	      46.21827	      40.96445	       0.00000	       0.00000
       9.25781	      47.37821	      40.68299	       0.00000	       0.00000
       9.37500	      44.75130	      40.86210	       0.00000	       0.00000
       9.49219	      45.77477	      40.50389	       0.00000	       0.00000
       9.60938	      45.13510	      40.50389	       0.00000	       0.00000
       9.72656	      47.07117	      40.16273	       0.00000	       0.00000
       9.84375	      46.55090	      40.19685	       0.00000	       0.00000
       9.96094	      46.47414	      40.70005	       0.00000	       0.00000
      10.07813	      45.43361	      40.29919	       0.00000	       0.00000
      10.19531	      45.16069	      39.76187	       0.00000	       0.00000
      10.31250	      45.59566	      40.93034	       0.00000	       0.00000
      10.42969	      45.86859	      40.03480	       0.00000	       0.00000
      10.54688	      45.24598	      41.14356	       0.00000	       0.00000
      10.66406	      46.16710	      40.54654	       0.00000	       0.00000
      10.78125	      46.08181	      41.05827	       0.00000	       0.00000
      10.89844	      46.63619	      40.37595	       0.00000	       0.00000
      11.01563	      47.03705	      41.39090	       0.00000	       0.00000
      11.13281	      45.24598	      39.52306	       0.00000	       0.00000
      11.25000	      46.09034	      39.51453	       0.00000	       0.00000
      11.36719	      46.37179	      40.75976	       0.00000	       0.00000
      11.48438	      46.72148	      40.06891	       0.00000	       0.00000
      11.60156	      46.56796	      40.59771	       0.00000	       0.00000
      11.71875	      45.75771	      39.95804	       0.00000	       0.00000
      11.83594	      46.16710	      40.17126	       0.00000	       0.00000
      11.95313	      46.11592	      40.63182	       0.00000	       0.00000
      12.07031	      45.23745	      40.98151	       0.00000	       0.00000
      12.18750	      46.59354	      40.77681	       0.00000	       0.00000
      12.30469	      46.07328	      39.78746	       0.00000	       0.00000
      12.42188	      46.08181	      40.20538	       0.00000	       0.00000
      12.53906	      48.17993	      39.41219	       0.00000	       0.00000
      12.65625	      46.46561	      39.42072	       0.00000	       0.00000
      12.77344	      45.91976	      40.95592	       0.00000	       0.00000
      12.89063	      46.54237	      40.45272	       0.00000	       0.00000
      13.00781	      45.40802	      39.08809	       0.00000	       0.00000
      13.12500	      45.52743	      39.82158	       0.00000	       0.00000
      13.24219	      46.82383	      41.88557	       0.00000	       0.00000
      13.35938	      45.67242	      40.07744	       0.00000	       0.00000
      13.47656	      46.09887	      39.57423	       0.00000	       0.00000
      13.59375	      47.28439	      40.63182	       0.00000	       0.00000
      13.71094	      46.85794	      39.29278	       0.00000	       0.00000
      13.82813	      46.54237	      40.83652	       0.00000	       0.00000
      13.94531	      45.69801	      40.22243	       0.00000	       0.00000
      14.06250	      45.92829	      41.24591	       0.00000	       0.00000
      14.17969	      46.33768	      40.13715	       0.00000	       0.00000
      14.29688	      45.52743	      39.65953	       0.00000	       0.00000
      14.41406	      45.57860	      40.40154	       0.00000	       0.00000
      14.53125	      46.17563	      41.28855	       0.00000	       0.00000
      14.64844	      46.80677	      39.77893	       0.00000	       0.00000
      14.76563	      45.87711	      39.66805	       0.00000	       0.00000
      14.88281	      45.42508	      39.48895	       0.00000	       0.00000
      15.00000	      46.20121	      40.38448	       0.00000	       0.00000
      15.11719	      46.36327	      40.35037	       0.00000	       0.00000
      15.23438	      45.79182	      40.37595	       0.00000	       0.00000
      15.35156	      46.55943	      39.90686	       0.00000	       0.00000
      15.46875	      45.75771	      41.69794	       0.00000	       0.00000
      15.58594	      46.15004	      40.57212	       0.00000	       0.00000
      15.70313	      45.48478	      40.81946	       0.00000	       0.00000
      15.82031	      45.75771	      39.83863	       0.00000	       0.00000
      15.93750	      45.55302	      39.94098	       0.00000	       0.00000
      16.05469	      46.49120	      40.52948	       0.00000	       0.00000
      16.17188	      45.27156	      40.18832	       0.00000	       0.00000
      16.28906	      46.88353	      40.51242	       0.00000	       0.00000
      16.40625	      45.65536	      39.67658	       0.00000	       0.00000
      16.52344	      46.58502	      39.87275	       0.00000	       0.00000
      16.64063	      45.92829	      40.58918	       0.00000	       0.00000
      16.75781	      46.19268	      40.75123	       0.00000	       0.00000
      16.87500	      45.96241	      40.78534	       0.00000	       0.00000
      16.99219	      46.84089	      40.54654	       0.00000	       0.00000
      17.10938	      45.53596	      41.16062	       0.00000	       0.00000
      17.22656	      46.49973	      40.73417	       0.00000	       0.00000
      17.34375	      45.91976	      39.87275	       0.00000	       0.00000
      17.46094	      46.03064	      40.32478	       0.00000	       0.00000
      17.57813	      47.36115	      41.12650	       0.00000	       0.00000
      17.69531	      44.64042	      40.61477	       0.00000	       0.00000
      17.81250	      45.93682	      40.77681	       0.00000	       0.00000
      17.92969	      46.81530	      40.93034	       0.00000	       0.00000
      18.04688	      46.33768	      40.24802	       0.00000	       0.00000
      18.16406	      46.27797	      40.52948	       0.00000	       0.00000
      18.28125	      46.17563	      40.17126	       0.00000	       0.00000
      18.39844	      46.16710	      40.02627	       0.00000	       0.00000
      18.51563	      46.20974	      40.58065	       0.00000	       0.00000
      18.63281	      45.98799	      40.56359	       0.00000	       0.00000
      18.75000	      47.04558	      40.71711	       0.00000	       0.00000
      18.86719	      45.39096	      39.61688	       0.00000	       0.00000
      18.98438	      45.88564	      38.94310	       0.00000	       0.00000
      19.10156	      45.08392	      40.39301	       0.00000	       0.00000
      19.21875	      45.98799	      39.85569	       0.00000	       0.00000
      19.33594	      46.38032	      40.19685	       0.00000	       0.00000
      19.45313	      45.94535	      40.09450	       0.00000	       0.00000
      19.57031	      45.44214	      39.88980	       0.00000	       0.00000
      19.68750	      46.00505	      40.24802	       0.00000	       0.00000
      19.80469	      46.03917	      39.93245	       0.00000	       0.00000
      19.92188	      47.08822	      41.03268	       0.00000	       0.00000
      20.03906	      46.27797	      40.73417	       0.00000	       0.00000
      20.15625	      45.14363	      40.03480	       0.00000	       0.00000
      20.27344	      45.96241	      40.25655	       0.00000	       0.00000
      20.39063	      46.05622	      40.58065	       0.00000	       0.00000
      20.50781	      46.10740	      39.40366	       0.00000	       0.00000
      20.62500	      45.45920	      40.41860	       0.00000	       0.00000
      20.74219	      46.90911	      40.34184	       0.00000	       0.00000
      20.85938	      46.03917	      40.25655	       0.00000	       0.00000
      20.97656	      45.97946	      40.39301	       0.00000	       0.00000
      21.09375	      46.34621	      39.82158	       0.00000	       0.00000
      21.21094	      44.91335	      40.10303	       0.00000	       0.00000
      21.32813	      45.54449	      40.15420	       0.00000	       0.00000
      21.44531	      46.62766	      40.32478	       0.00000	       0.00000
      21.56250	      45.91123	      40.59771	       0.00000	       0.00000
      21.67969	      46.17563	      40.57212	       0.00000	       0.00000
      21.79688	      45.60419	      40.75976	       0.00000	       0.00000
      21.91406	      45.58713	      40.44419	       0.00000	       0.00000
      22.03125	      46.10740	      40.21391	       0.00000	       0.00000
      22.14844	      45.68095	      40.50389	       0.00000	       0.00000
      22.26563	      46.62766	      41.25444	       0.00000	       0.00000
      22.38281	      45.95388	      40.54654	       0.00000	       0.00000
      22.50000	      45.80888	      40.52095	       0.00000	       0.00000
      22.61719	      45.28862	      39.64247	       0.00000	       0.00000
      22.73438	      46.00505	      40.64035	       0.00000	       0.00000
      22.85156	      46.52531	      41.22032	       0.00000	       0.00000
      22.96875	      47.25027	      40.05186	       0.00000	       0.00000
      23.08594	      46.10740	      39.50600	       0.00000	       0.00000
      23.20313	      45.27156	      40.59771	       0.00000	       0.00000
      23.32031	      46.56796	      39.50600	       0.00000	       0.00000
      23.43750	      45.52743	      39.24161	       0.00000	       0.00000
      23.55469	      45.91123	      40.48683	       0.00000	       0.00000
      23.67188	      45.06687	      39.26719	       0.00000	       0.00000
      23.78906	      45.52743	      39.71070	       0.00000	       0.00000
      23.90625	      45.87711	      41.06680	       0.00000	       0.00000
      24.02344	      46.11592	      40.38448	       0.00000	       0.00000
      24.14063	      46.69589	      40.30772	       0.00000	       0.00000
      24.25781	      45.94535	      40.69152	       0.00000	       0.00000
      24.37500	      46.03064	      40.66594	       0.00000	       0.00000
      24.49219	      46.53384	      39.88980	       0.00000	       0.00000
      24.60938	      46.53384	      40.37595	       0.00000	       0.00000
      24.72656	      46.19268	      40.71711	       0.00000	       0.00000
      24.84375	      46.27797	      40.68299	       0.00000	       0.00000
      24.96094	      45.90270	      40.41007	       0.00000	       0.00000
      25.07813	      45.78330	      39.71070	       0.00000	       0.00000
      25.19531	      45.73212	      39.31837	       0.00000	       0.00000
      25.31250	      45.50184	      40.64888	       0.00000	       0.00000
      25.42969	      45.30568	      40.68299	       0.00000	       0.00000
      25.54688	      46.95176	      39.72776	       0.00000	       0.00000
      25.66406	      45.77477	      40.70005	       0.00000	       0.00000
      25.78125	      46.43150	      40.70858	       0.00000	       0.00000
      25.89844	      46.87500	      41.28855	       0.00000	       0.00000
      26.01563	      45.92829	      38.74693	       0.00000	       0.00000
      26.13281	      45.22039	      40.92181	       0.00000	       0.00000
      26.25000	      45.62978	      40.57212	       0.00000	       0.00000
      26.36719	      45.62125	      39.02839	       0.00000	       0.00000
      26.48438	      46.56796	      40.80240	       0.00000	       0.00000
      26.60156	      45.30568	      40.70858	       0.00000	       0.00000
      26.71875	      45.95388	      40.50389	       0.00000	       0.00000
      26.83594	      46.38885	      40.16273	       0.00000	       0.00000
      26.95313	      46.15004	      40.70005	       0.00000	       0.00000
      27.07031	      45.99652	      38.63605	       0.00000	       0.00000
      27.18750	      44.70865	      40.17126	       0.00000	       0.00000
      27.30469	      45.57860	      40.41860	       0.00000	       0.00000
      27.42188	      47.28439	      39.89833	       0.00000	       0.00000
      27.53906	      46.04770	      40.13715	       0.00000	       0.00000
      27.65625	      45.29715	      39.88128	       0.00000	       0.00000
      27.77344	      45.69801	      40.26508	       0.00000	       0.00000
      27.89063	      46.65325	      39.58276	       0.00000	       0.00000
      28.00781	      46.75560	      40.52948	       0.00000	       0.00000
      28.12500	      45.39949	      39.59982	       0.00000	       0.00000
      28.24219	      46.23533	      39.68511	       0.00000	       0.00000
      28.35938	      45.25451	      40.89622	       0.00000	       0.00000
      28.47656	      45.26303	      39.60835	       0.00000	       0.00000
      28.59375	      46.59354	      41.49324	       0.00000	       0.00000
      28.71094	      46.11592	      39.93245	       0.00000	       0.00000
      28.82813	      45.97093	      40.32478	       0.00000	       0.00000
      28.94531	      45.62978	      40.79387	       0.00000	       0.00000
      29.06250	      46.01358	      40.58065	       0.00000	       0.00000
      29.17969	      46.53384	      39.96657	       0.00000	       0.00000
      29.29688	      46.15857	      40.17126	       0.00000	       0.00000
      29.41406	      44.67454	      41.33120	       0.00000	       0.00000
      29.53125	      45.97946	      39.89833	       0.00000	       0.00000
      29.64844	      46.87500	      39.88980	       0.00000	       0.00000
      29.76563	      45.93682	      40.22243	       0.00000	       0.00000
      29.88281	      45.78330	      39.58276	       0.00000	       0.00000

Monitor Diode	1757361.87

"Cumulant 1.Order"
FluctuationFreq. [1/ms]	 0.0000E+000
DiffCoefficient [µm²/s]	 0.0000E+000
Hydrodyn. Radius [nm]	 0.0000E+000

"Cumulant 2.Order"
FluctuationFreq. [1/ms]	 0.0000E+000
DiffCoefficient [µm²/s]	 0.0000E+000
Hydrodyn. Radius [nm]	 0.0000E+000
Expansion Parameter µ2	 0.0000E+000

"Cumulant 3.Order"
FluctuationFreq. [1/ms]	 0.0000E+000
DiffCoefficient [µm²/s]	 0.0000E+000
Hydrodyn. Radius [nm]	 0.0000E+000
Expansion Parameter µ2	 0.0000E+000
Expansion Parameter µ3	 0.0000E+000

